classdef Primate < edu.washington.rieke.sources.Subject
    
    methods
        
        function obj = Primate()
            import symphonyui.core.*;
            
            obj.addProperty('species', '', ...
                'type', PropertyType('char', 'row', {'', 'M. mulatta', 'M. fascicularis', 'M. nemestrina'}), ... 
                'description', 'Species');
            
            photoreceptors = containers.Map();
            photoreceptors('lCone') = struct('collectingArea', 0.37, 'spectrum', obj.L_CONE_SPECTRUM);
            photoreceptors('mCone') = struct('collectingArea', 0.37, 'spectrum', obj.M_CONE_SPECTRUM);
            photoreceptors('rod')   = struct('collectingArea', 1.00, 'spectrum', obj.ROD_SPECTRUM);
            photoreceptors('sCone') = struct('collectingArea', 0.37, 'spectrum', obj.S_CONE_SPECTRUM);
            obj.addResource('photoreceptors', photoreceptors);
            
            obj.addAllowableParentType([]);
        end
        
    end
    
    properties (Constant)
        
        L_CONE_SPECTRUM = [ ...
            370.000000, 0.046875;
            371.000000, 0.048377;
            372.000000, 0.049804;
            373.000000, 0.051153;
            374.000000, 0.052422;
            375.000000, 0.053612;
            376.000000, 0.054720;
            377.000000, 0.055749;
            378.000000, 0.056698;
            379.000000, 0.057569;
            380.000000, 0.058366;
            381.000000, 0.059089;
            382.000000, 0.059741;
            383.000000, 0.060327;
            384.000000, 0.060849;
            385.000000, 0.061310;
            386.000000, 0.061715;
            387.000000, 0.062067;
            388.000000, 0.062370;
            389.000000, 0.062628;
            390.000000, 0.062845;
            391.000000, 0.063024;
            392.000000, 0.063170;
            393.000000, 0.063285;
            394.000000, 0.063375;
            395.000000, 0.063441;
            396.000000, 0.063488;
            397.000000, 0.063519;
            398.000000, 0.063537;
            399.000000, 0.063544;
            400.000000, 0.063545;
            401.000000, 0.063541;
            402.000000, 0.063535;
            403.000000, 0.063530;
            404.000000, 0.063528;
            405.000000, 0.063531;
            406.000000, 0.063541;
            407.000000, 0.063561;
            408.000000, 0.063592;
            409.000000, 0.063636;
            410.000000, 0.063695;
            411.000000, 0.063771;
            412.000000, 0.063864;
            413.000000, 0.063977;
            414.000000, 0.064111;
            415.000000, 0.064268;
            416.000000, 0.064448;
            417.000000, 0.064653;
            418.000000, 0.064884;
            419.000000, 0.065142;
            420.000000, 0.065430;
            421.000000, 0.065747;
            422.000000, 0.066094;
            423.000000, 0.066474;
            424.000000, 0.066887;
            425.000000, 0.067335;
            426.000000, 0.067817;
            427.000000, 0.068337;
            428.000000, 0.068894;
            429.000000, 0.069489;
            430.000000, 0.070125;
            431.000000, 0.070802;
            432.000000, 0.071522;
            433.000000, 0.072285;
            434.000000, 0.073094;
            435.000000, 0.073949;
            436.000000, 0.074851;
            437.000000, 0.075803;
            438.000000, 0.076805;
            439.000000, 0.077859;
            440.000000, 0.078966;
            441.000000, 0.080129;
            442.000000, 0.081349;
            443.000000, 0.082627;
            444.000000, 0.083965;
            445.000000, 0.085366;
            446.000000, 0.086830;
            447.000000, 0.088360;
            448.000000, 0.089958;
            449.000000, 0.091625;
            450.000000, 0.093365;
            451.000000, 0.095179;
            452.000000, 0.097069;
            453.000000, 0.099037;
            454.000000, 0.101087;
            455.000000, 0.103220;
            456.000000, 0.105440;
            457.000000, 0.107748;
            458.000000, 0.110147;
            459.000000, 0.112640;
            460.000000, 0.115230;
            461.000000, 0.117919;
            462.000000, 0.120711;
            463.000000, 0.123608;
            464.000000, 0.126614;
            465.000000, 0.129731;
            466.000000, 0.132964;
            467.000000, 0.136314;
            468.000000, 0.139785;
            469.000000, 0.143381;
            470.000000, 0.147105;
            471.000000, 0.150960;
            472.000000, 0.154950;
            473.000000, 0.159078;
            474.000000, 0.163348;
            475.000000, 0.167762;
            476.000000, 0.172326;
            477.000000, 0.177041;
            478.000000, 0.181913;
            479.000000, 0.186943;
            480.000000, 0.192136;
            481.000000, 0.197495;
            482.000000, 0.203024;
            483.000000, 0.208725;
            484.000000, 0.214602;
            485.000000, 0.220659;
            486.000000, 0.226898;
            487.000000, 0.233323;
            488.000000, 0.239936;
            489.000000, 0.246740;
            490.000000, 0.253737;
            491.000000, 0.260931;
            492.000000, 0.268324;
            493.000000, 0.275917;
            494.000000, 0.283713;
            495.000000, 0.291712;
            496.000000, 0.299918;
            497.000000, 0.308330;
            498.000000, 0.316950;
            499.000000, 0.325778;
            500.000000, 0.334814;
            501.000000, 0.344059;
            502.000000, 0.353512;
            503.000000, 0.363172;
            504.000000, 0.373038;
            505.000000, 0.383108;
            506.000000, 0.393381;
            507.000000, 0.403854;
            508.000000, 0.414523;
            509.000000, 0.425386;
            510.000000, 0.436438;
            511.000000, 0.447675;
            512.000000, 0.459092;
            513.000000, 0.470683;
            514.000000, 0.482442;
            515.000000, 0.494363;
            516.000000, 0.506438;
            517.000000, 0.518659;
            518.000000, 0.531019;
            519.000000, 0.543506;
            520.000000, 0.556113;
            521.000000, 0.568829;
            522.000000, 0.581642;
            523.000000, 0.594542;
            524.000000, 0.607516;
            525.000000, 0.620551;
            526.000000, 0.633634;
            527.000000, 0.646751;
            528.000000, 0.659887;
            529.000000, 0.673028;
            530.000000, 0.686158;
            531.000000, 0.699261;
            532.000000, 0.712320;
            533.000000, 0.725318;
            534.000000, 0.738238;
            535.000000, 0.751062;
            536.000000, 0.763772;
            537.000000, 0.776348;
            538.000000, 0.788773;
            539.000000, 0.801027;
            540.000000, 0.813091;
            541.000000, 0.824946;
            542.000000, 0.836572;
            543.000000, 0.847948;
            544.000000, 0.859057;
            545.000000, 0.869878;
            546.000000, 0.880392;
            547.000000, 0.890579;
            548.000000, 0.900421;
            549.000000, 0.909899;
            550.000000, 0.918994;
            551.000000, 0.927688;
            552.000000, 0.935964;
            553.000000, 0.943805;
            554.000000, 0.951194;
            555.000000, 0.958115;
            556.000000, 0.964554;
            557.000000, 0.970495;
            558.000000, 0.975925;
            559.000000, 0.980832;
            560.000000, 0.985202;
            561.000000, 0.989026;
            562.000000, 0.992293;
            563.000000, 0.994995;
            564.000000, 0.997123;
            565.000000, 0.998670;
            566.000000, 0.999630;
            567.000000, 1.000000;
            568.000000, 0.999775;
            569.000000, 0.998954;
            570.000000, 0.997534;
            571.000000, 0.995517;
            572.000000, 0.992904;
            573.000000, 0.989697;
            574.000000, 0.985899;
            575.000000, 0.981517;
            576.000000, 0.976555;
            577.000000, 0.971022;
            578.000000, 0.964925;
            579.000000, 0.958275;
            580.000000, 0.951082;
            581.000000, 0.943357;
            582.000000, 0.935114;
            583.000000, 0.926366;
            584.000000, 0.917128;
            585.000000, 0.907415;
            586.000000, 0.897244;
            587.000000, 0.886633;
            588.000000, 0.875598;
            589.000000, 0.864159;
            590.000000, 0.852335;
            591.000000, 0.840146;
            592.000000, 0.827612;
            593.000000, 0.814754;
            594.000000, 0.801592;
            595.000000, 0.788149;
            596.000000, 0.774446;
            597.000000, 0.760504;
            598.000000, 0.746347;
            599.000000, 0.731995;
            600.000000, 0.717471;
            601.000000, 0.702796;
            602.000000, 0.687993;
            603.000000, 0.673083;
            604.000000, 0.658087;
            605.000000, 0.643027;
            606.000000, 0.627923;
            607.000000, 0.612795;
            608.000000, 0.597663;
            609.000000, 0.582547;
            610.000000, 0.567466;
            611.000000, 0.552437;
            612.000000, 0.537479;
            613.000000, 0.522608;
            614.000000, 0.507841;
            615.000000, 0.493193;
            616.000000, 0.478679;
            617.000000, 0.464314;
            618.000000, 0.450112;
            619.000000, 0.436084;
            620.000000, 0.422243;
            621.000000, 0.408600;
            622.000000, 0.395166;
            623.000000, 0.381949;
            624.000000, 0.368960;
            625.000000, 0.356206;
            626.000000, 0.343695;
            627.000000, 0.331433;
            628.000000, 0.319425;
            629.000000, 0.307678;
            630.000000, 0.296196;
            631.000000, 0.284981;
            632.000000, 0.274039;
            633.000000, 0.263370;
            634.000000, 0.252977;
            635.000000, 0.242860;
            636.000000, 0.233022;
            637.000000, 0.223460;
            638.000000, 0.214176;
            639.000000, 0.205168;
            640.000000, 0.196434;
            641.000000, 0.187973;
            642.000000, 0.179782;
            643.000000, 0.171860;
            644.000000, 0.164201;
            645.000000, 0.156804;
            646.000000, 0.149664;
            647.000000, 0.142777;
            648.000000, 0.136139;
            649.000000, 0.129745;
            650.000000, 0.123591;
            651.000000, 0.117672;
            652.000000, 0.111982;
            653.000000, 0.106516;
            654.000000, 0.101270;
            655.000000, 0.096236;
            656.000000, 0.091410;
            657.000000, 0.086787;
            658.000000, 0.082359;
            659.000000, 0.078123;
            660.000000, 0.074071;
            661.000000, 0.070198;
            662.000000, 0.066499;
            663.000000, 0.062968;
            664.000000, 0.059598;
            665.000000, 0.056385;
            666.000000, 0.053324;
            667.000000, 0.050407;
            668.000000, 0.047631;
            669.000000, 0.044989;
            670.000000, 0.042478;
            671.000000, 0.040090;
            672.000000, 0.037823;
            673.000000, 0.035669;
            674.000000, 0.033626;
            675.000000, 0.031688;
            676.000000, 0.029851;
            677.000000, 0.028110;
            678.000000, 0.026462;
            679.000000, 0.024901;
            680.000000, 0.023424;
            681.000000, 0.022028;
            682.000000, 0.020707;
            683.000000, 0.019460;
            684.000000, 0.018282;
            685.000000, 0.017169;
            686.000000, 0.016120;
            687.000000, 0.015129;
            688.000000, 0.014196;
            689.000000, 0.013316;
            690.000000, 0.012487;
            691.000000, 0.011706;
            692.000000, 0.010971;
            693.000000, 0.010279;
            694.000000, 0.009629;
            695.000000, 0.009017;
            696.000000, 0.008442;
            697.000000, 0.007902;
            698.000000, 0.007394;
            699.000000, 0.006918;
            700.000000, 0.006470;
            701.000000, 0.006050;
            702.000000, 0.005656;
            703.000000, 0.005287;
            704.000000, 0.004941;
            705.000000, 0.004616;
            706.000000, 0.004312;
            707.000000, 0.004027;
            708.000000, 0.003761;
            709.000000, 0.003511;
            710.000000, 0.003277;
            711.000000, 0.003059;
            712.000000, 0.002854;
            713.000000, 0.002663;
            714.000000, 0.002484;
            715.000000, 0.002317;
            716.000000, 0.002161;
            717.000000, 0.002015;
            718.000000, 0.001879;
            719.000000, 0.001751;
            720.000000, 0.001633];
        
        M_CONE_SPECTRUM = [ ...
            370.000000, 0.063009;
            371.000000, 0.063165;
            372.000000, 0.063288;
            373.000000, 0.063381;
            374.000000, 0.063449;
            375.000000, 0.063496;
            376.000000, 0.063525;
            377.000000, 0.063540;
            378.000000, 0.063546;
            379.000000, 0.063544;
            380.000000, 0.063539;
            381.000000, 0.063533;
            382.000000, 0.063529;
            383.000000, 0.063529;
            384.000000, 0.063538;
            385.000000, 0.063556;
            386.000000, 0.063586;
            387.000000, 0.063630;
            388.000000, 0.063690;
            389.000000, 0.063769;
            390.000000, 0.063868;
            391.000000, 0.063989;
            392.000000, 0.064133;
            393.000000, 0.064303;
            394.000000, 0.064499;
            395.000000, 0.064723;
            396.000000, 0.064978;
            397.000000, 0.065263;
            398.000000, 0.065580;
            399.000000, 0.065932;
            400.000000, 0.066319;
            401.000000, 0.066742;
            402.000000, 0.067203;
            403.000000, 0.067703;
            404.000000, 0.068244;
            405.000000, 0.068826;
            406.000000, 0.069452;
            407.000000, 0.070122;
            408.000000, 0.070839;
            409.000000, 0.071603;
            410.000000, 0.072415;
            411.000000, 0.073279;
            412.000000, 0.074194;
            413.000000, 0.075163;
            414.000000, 0.076188;
            415.000000, 0.077269;
            416.000000, 0.078410;
            417.000000, 0.079611;
            418.000000, 0.080874;
            419.000000, 0.082202;
            420.000000, 0.083597;
            421.000000, 0.085060;
            422.000000, 0.086595;
            423.000000, 0.088202;
            424.000000, 0.089885;
            425.000000, 0.091645;
            426.000000, 0.093486;
            427.000000, 0.095410;
            428.000000, 0.097420;
            429.000000, 0.099517;
            430.000000, 0.101706;
            431.000000, 0.103989;
            432.000000, 0.106369;
            433.000000, 0.108849;
            434.000000, 0.111432;
            435.000000, 0.114121;
            436.000000, 0.116921;
            437.000000, 0.119833;
            438.000000, 0.122863;
            439.000000, 0.126012;
            440.000000, 0.129285;
            441.000000, 0.132686;
            442.000000, 0.136219;
            443.000000, 0.139886;
            444.000000, 0.143693;
            445.000000, 0.147643;
            446.000000, 0.151740;
            447.000000, 0.155988;
            448.000000, 0.160391;
            449.000000, 0.164953;
            450.000000, 0.169679;
            451.000000, 0.174573;
            452.000000, 0.179638;
            453.000000, 0.184879;
            454.000000, 0.190300;
            455.000000, 0.195905;
            456.000000, 0.201698;
            457.000000, 0.207683;
            458.000000, 0.213864;
            459.000000, 0.220245;
            460.000000, 0.226829;
            461.000000, 0.233620;
            462.000000, 0.240621;
            463.000000, 0.247836;
            464.000000, 0.255268;
            465.000000, 0.262919;
            466.000000, 0.270792;
            467.000000, 0.278890;
            468.000000, 0.287215;
            469.000000, 0.295769;
            470.000000, 0.304553;
            471.000000, 0.313568;
            472.000000, 0.322815;
            473.000000, 0.332295;
            474.000000, 0.342007;
            475.000000, 0.351952;
            476.000000, 0.362129;
            477.000000, 0.372535;
            478.000000, 0.383170;
            479.000000, 0.394030;
            480.000000, 0.405113;
            481.000000, 0.416416;
            482.000000, 0.427933;
            483.000000, 0.439661;
            484.000000, 0.451594;
            485.000000, 0.463725;
            486.000000, 0.476048;
            487.000000, 0.488556;
            488.000000, 0.501240;
            489.000000, 0.514091;
            490.000000, 0.527099;
            491.000000, 0.540254;
            492.000000, 0.553545;
            493.000000, 0.566960;
            494.000000, 0.580486;
            495.000000, 0.594109;
            496.000000, 0.607815;
            497.000000, 0.621590;
            498.000000, 0.635417;
            499.000000, 0.649279;
            500.000000, 0.663160;
            501.000000, 0.677042;
            502.000000, 0.690906;
            503.000000, 0.704734;
            504.000000, 0.718504;
            505.000000, 0.732197;
            506.000000, 0.745793;
            507.000000, 0.759269;
            508.000000, 0.772605;
            509.000000, 0.785777;
            510.000000, 0.798764;
            511.000000, 0.811543;
            512.000000, 0.824091;
            513.000000, 0.836384;
            514.000000, 0.848401;
            515.000000, 0.860117;
            516.000000, 0.871511;
            517.000000, 0.882557;
            518.000000, 0.893236;
            519.000000, 0.903523;
            520.000000, 0.913396;
            521.000000, 0.922835;
            522.000000, 0.931818;
            523.000000, 0.940325;
            524.000000, 0.948336;
            525.000000, 0.955832;
            526.000000, 0.962794;
            527.000000, 0.969206;
            528.000000, 0.975051;
            529.000000, 0.980313;
            530.000000, 0.984979;
            531.000000, 0.989036;
            532.000000, 0.992471;
            533.000000, 0.995274;
            534.000000, 0.997435;
            535.000000, 0.998948;
            536.000000, 0.999804;
            537.000000, 1.000000;
            538.000000, 0.999531;
            539.000000, 0.998396;
            540.000000, 0.996593;
            541.000000, 0.994123;
            542.000000, 0.990990;
            543.000000, 0.987196;
            544.000000, 0.982746;
            545.000000, 0.977649;
            546.000000, 0.971912;
            547.000000, 0.965544;
            548.000000, 0.958557;
            549.000000, 0.950964;
            550.000000, 0.942778;
            551.000000, 0.934014;
            552.000000, 0.924689;
            553.000000, 0.914820;
            554.000000, 0.904425;
            555.000000, 0.893525;
            556.000000, 0.882140;
            557.000000, 0.870292;
            558.000000, 0.858002;
            559.000000, 0.845293;
            560.000000, 0.832191;
            561.000000, 0.818717;
            562.000000, 0.804899;
            563.000000, 0.790760;
            564.000000, 0.776326;
            565.000000, 0.761622;
            566.000000, 0.746676;
            567.000000, 0.731512;
            568.000000, 0.716157;
            569.000000, 0.700636;
            570.000000, 0.684975;
            571.000000, 0.669199;
            572.000000, 0.653334;
            573.000000, 0.637405;
            574.000000, 0.621435;
            575.000000, 0.605448;
            576.000000, 0.589467;
            577.000000, 0.573516;
            578.000000, 0.557615;
            579.000000, 0.541786;
            580.000000, 0.526049;
            581.000000, 0.510424;
            582.000000, 0.494929;
            583.000000, 0.479582;
            584.000000, 0.464400;
            585.000000, 0.449398;
            586.000000, 0.434593;
            587.000000, 0.419998;
            588.000000, 0.405626;
            589.000000, 0.391488;
            590.000000, 0.377598;
            591.000000, 0.363963;
            592.000000, 0.350595;
            593.000000, 0.337501;
            594.000000, 0.324688;
            595.000000, 0.312163;
            596.000000, 0.299932;
            597.000000, 0.287999;
            598.000000, 0.276368;
            599.000000, 0.265042;
            600.000000, 0.254023;
            601.000000, 0.243314;
            602.000000, 0.232914;
            603.000000, 0.222824;
            604.000000, 0.213043;
            605.000000, 0.203570;
            606.000000, 0.194404;
            607.000000, 0.185541;
            608.000000, 0.176979;
            609.000000, 0.168714;
            610.000000, 0.160743;
            611.000000, 0.153062;
            612.000000, 0.145666;
            613.000000, 0.138549;
            614.000000, 0.131707;
            615.000000, 0.125135;
            616.000000, 0.118825;
            617.000000, 0.112773;
            618.000000, 0.106972;
            619.000000, 0.101416;
            620.000000, 0.096098;
            621.000000, 0.091012;
            622.000000, 0.086150;
            623.000000, 0.081507;
            624.000000, 0.077076;
            625.000000, 0.072849;
            626.000000, 0.068821;
            627.000000, 0.064983;
            628.000000, 0.061330;
            629.000000, 0.057855;
            630.000000, 0.054552;
            631.000000, 0.051413;
            632.000000, 0.048433;
            633.000000, 0.045605;
            634.000000, 0.042923;
            635.000000, 0.040381;
            636.000000, 0.037973;
            637.000000, 0.035693;
            638.000000, 0.033537;
            639.000000, 0.031497;
            640.000000, 0.029570;
            641.000000, 0.027749;
            642.000000, 0.026030;
            643.000000, 0.024408;
            644.000000, 0.022879;
            645.000000, 0.021437;
            646.000000, 0.020078;
            647.000000, 0.018799;
            648.000000, 0.017595;
            649.000000, 0.016463;
            650.000000, 0.015398;
            651.000000, 0.014397;
            652.000000, 0.013457;
            653.000000, 0.012574;
            654.000000, 0.011745;
            655.000000, 0.010967;
            656.000000, 0.010238;
            657.000000, 0.009554;
            658.000000, 0.008914;
            659.000000, 0.008314;
            660.000000, 0.007752;
            661.000000, 0.007227;
            662.000000, 0.006735;
            663.000000, 0.006275;
            664.000000, 0.005845;
            665.000000, 0.005443;
            666.000000, 0.005067;
            667.000000, 0.004717;
            668.000000, 0.004389;
            669.000000, 0.004084;
            670.000000, 0.003799;
            671.000000, 0.003533;
            672.000000, 0.003285;
            673.000000, 0.003054;
            674.000000, 0.002839;
            675.000000, 0.002638;
            676.000000, 0.002451;
            677.000000, 0.002277;
            678.000000, 0.002115;
            679.000000, 0.001965;
            680.000000, 0.001825;
            681.000000, 0.001694;
            682.000000, 0.001573;
            683.000000, 0.001460;
            684.000000, 0.001355;
            685.000000, 0.001258;
            686.000000, 0.001167;
            687.000000, 0.001083;
            688.000000, 0.001005;
            689.000000, 0.000932;
            690.000000, 0.000865;
            691.000000, 0.000802;
            692.000000, 0.000744;
            693.000000, 0.000690;
            694.000000, 0.000640;
            695.000000, 0.000594;
            696.000000, 0.000551;
            697.000000, 0.000511;
            698.000000, 0.000474;
            699.000000, 0.000439;
            700.000000, 0.000408;
            701.000000, 0.000378;
            702.000000, 0.000351;
            703.000000, 0.000325;
            704.000000, 0.000302;
            705.000000, 0.000280;
            706.000000, 0.000259;
            707.000000, 0.000241;
            708.000000, 0.000223;
            709.000000, 0.000207;
            710.000000, 0.000192;
            711.000000, 0.000178;
            712.000000, 0.000166;
            713.000000, 0.000154;
            714.000000, 0.000143;
            715.000000, 0.000132;
            716.000000, 0.000123;
            717.000000, 0.000114;
            718.000000, 0.000106;
            719.000000, 0.000098;
            720.000000, 0.000091];
        
        ROD_SPECTRUM = [ ...
            370.000000, 0.026676;
            371.000000, 0.028130;
            372.000000, 0.029653;
            373.000000, 0.031247;
            374.000000, 0.032916;
            375.000000, 0.034663;
            376.000000, 0.036490;
            377.000000, 0.038400;
            378.000000, 0.040397;
            379.000000, 0.042482;
            380.000000, 0.044661;
            381.000000, 0.046935;
            382.000000, 0.049308;
            383.000000, 0.051784;
            384.000000, 0.054366;
            385.000000, 0.057056;
            386.000000, 0.059859;
            387.000000, 0.062779;
            388.000000, 0.065818;
            389.000000, 0.068980;
            390.000000, 0.072269;
            391.000000, 0.075689;
            392.000000, 0.079242;
            393.000000, 0.082934;
            394.000000, 0.086766;
            395.000000, 0.090744;
            396.000000, 0.094870;
            397.000000, 0.099149;
            398.000000, 0.103583;
            399.000000, 0.108176;
            400.000000, 0.112931;
            401.000000, 0.117853;
            402.000000, 0.122944;
            403.000000, 0.128208;
            404.000000, 0.133646;
            405.000000, 0.139264;
            406.000000, 0.145063;
            407.000000, 0.151046;
            408.000000, 0.157216;
            409.000000, 0.163575;
            410.000000, 0.170125;
            411.000000, 0.176869;
            412.000000, 0.183808;
            413.000000, 0.190944;
            414.000000, 0.198279;
            415.000000, 0.205813;
            416.000000, 0.213547;
            417.000000, 0.221483;
            418.000000, 0.229619;
            419.000000, 0.237958;
            420.000000, 0.246498;
            421.000000, 0.255238;
            422.000000, 0.264178;
            423.000000, 0.273317;
            424.000000, 0.282653;
            425.000000, 0.292184;
            426.000000, 0.301909;
            427.000000, 0.311823;
            428.000000, 0.321925;
            429.000000, 0.332211;
            430.000000, 0.342677;
            431.000000, 0.353319;
            432.000000, 0.364133;
            433.000000, 0.375113;
            434.000000, 0.386256;
            435.000000, 0.397554;
            436.000000, 0.409002;
            437.000000, 0.420593;
            438.000000, 0.432321;
            439.000000, 0.444179;
            440.000000, 0.456160;
            441.000000, 0.468255;
            442.000000, 0.480457;
            443.000000, 0.492757;
            444.000000, 0.505146;
            445.000000, 0.517617;
            446.000000, 0.530158;
            447.000000, 0.542762;
            448.000000, 0.555417;
            449.000000, 0.568115;
            450.000000, 0.580845;
            451.000000, 0.593596;
            452.000000, 0.606358;
            453.000000, 0.619120;
            454.000000, 0.631872;
            455.000000, 0.644602;
            456.000000, 0.657299;
            457.000000, 0.669951;
            458.000000, 0.682547;
            459.000000, 0.695076;
            460.000000, 0.707525;
            461.000000, 0.719883;
            462.000000, 0.732139;
            463.000000, 0.744279;
            464.000000, 0.756293;
            465.000000, 0.768167;
            466.000000, 0.779890;
            467.000000, 0.791449;
            468.000000, 0.802833;
            469.000000, 0.814029;
            470.000000, 0.825024;
            471.000000, 0.835806;
            472.000000, 0.846362;
            473.000000, 0.856680;
            474.000000, 0.866748;
            475.000000, 0.876552;
            476.000000, 0.886079;
            477.000000, 0.895318;
            478.000000, 0.904255;
            479.000000, 0.912878;
            480.000000, 0.921173;
            481.000000, 0.929127;
            482.000000, 0.936729;
            483.000000, 0.943964;
            484.000000, 0.950819;
            485.000000, 0.957283;
            486.000000, 0.963342;
            487.000000, 0.968983;
            488.000000, 0.974194;
            489.000000, 0.978962;
            490.000000, 0.983275;
            491.000000, 0.987121;
            492.000000, 0.990488;
            493.000000, 0.993363;
            494.000000, 0.995737;
            495.000000, 0.997598;
            496.000000, 0.998935;
            497.000000, 0.999739;
            498.000000, 1.000000;
            499.000000, 0.999710;
            500.000000, 0.998861;
            501.000000, 0.997445;
            502.000000, 0.995456;
            503.000000, 0.992889;
            504.000000, 0.989740;
            505.000000, 0.986005;
            506.000000, 0.981681;
            507.000000, 0.976769;
            508.000000, 0.971267;
            509.000000, 0.965179;
            510.000000, 0.958506;
            511.000000, 0.951254;
            512.000000, 0.943427;
            513.000000, 0.935035;
            514.000000, 0.926084;
            515.000000, 0.916587;
            516.000000, 0.906555;
            517.000000, 0.896001;
            518.000000, 0.884940;
            519.000000, 0.873388;
            520.000000, 0.861365;
            521.000000, 0.848887;
            522.000000, 0.835977;
            523.000000, 0.822655;
            524.000000, 0.808944;
            525.000000, 0.794868;
            526.000000, 0.780451;
            527.000000, 0.765719;
            528.000000, 0.750697;
            529.000000, 0.735413;
            530.000000, 0.719892;
            531.000000, 0.704162;
            532.000000, 0.688250;
            533.000000, 0.672184;
            534.000000, 0.655990;
            535.000000, 0.639696;
            536.000000, 0.623328;
            537.000000, 0.606912;
            538.000000, 0.590474;
            539.000000, 0.574038;
            540.000000, 0.557629;
            541.000000, 0.541270;
            542.000000, 0.524984;
            543.000000, 0.508792;
            544.000000, 0.492715;
            545.000000, 0.476772;
            546.000000, 0.460982;
            547.000000, 0.445364;
            548.000000, 0.429932;
            549.000000, 0.414703;
            550.000000, 0.399692;
            551.000000, 0.384912;
            552.000000, 0.370375;
            553.000000, 0.356094;
            554.000000, 0.342078;
            555.000000, 0.328337;
            556.000000, 0.314881;
            557.000000, 0.301717;
            558.000000, 0.288853;
            559.000000, 0.276294;
            560.000000, 0.264047;
            561.000000, 0.252117;
            562.000000, 0.240507;
            563.000000, 0.229222;
            564.000000, 0.218263;
            565.000000, 0.207635;
            566.000000, 0.197337;
            567.000000, 0.187371;
            568.000000, 0.177737;
            569.000000, 0.168436;
            570.000000, 0.159466;
            571.000000, 0.150827;
            572.000000, 0.142515;
            573.000000, 0.134529;
            574.000000, 0.126866;
            575.000000, 0.119521;
            576.000000, 0.112492;
            577.000000, 0.105772;
            578.000000, 0.099357;
            579.000000, 0.093241;
            580.000000, 0.087418;
            581.000000, 0.081881;
            582.000000, 0.076624;
            583.000000, 0.071638;
            584.000000, 0.066917;
            585.000000, 0.062451;
            586.000000, 0.058233;
            587.000000, 0.054254;
            588.000000, 0.050505;
            589.000000, 0.046977;
            590.000000, 0.043663;
            591.000000, 0.040551;
            592.000000, 0.037634;
            593.000000, 0.034902;
            594.000000, 0.032347;
            595.000000, 0.029960;
            596.000000, 0.027732;
            597.000000, 0.025654;
            598.000000, 0.023719;
            599.000000, 0.021918;
            600.000000, 0.020244;
            601.000000, 0.018689;
            602.000000, 0.017246;
            603.000000, 0.015907;
            604.000000, 0.014667;
            605.000000, 0.013518;
            606.000000, 0.012456;
            607.000000, 0.011473;
            608.000000, 0.010564;
            609.000000, 0.009726;
            610.000000, 0.008951;
            611.000000, 0.008237;
            612.000000, 0.007578;
            613.000000, 0.006970;
            614.000000, 0.006411;
            615.000000, 0.005895;
            616.000000, 0.005420;
            617.000000, 0.004983;
            618.000000, 0.004581;
            619.000000, 0.004212;
            620.000000, 0.003871;
            621.000000, 0.003559;
            622.000000, 0.003271;
            623.000000, 0.003007;
            624.000000, 0.002764;
            625.000000, 0.002541;
            626.000000, 0.002335;
            627.000000, 0.002147;
            628.000000, 0.001974;
            629.000000, 0.001815;
            630.000000, 0.001669;
            631.000000, 0.001535;
            632.000000, 0.001411;
            633.000000, 0.001298;
            634.000000, 0.001194;
            635.000000, 0.001099;
            636.000000, 0.001011;
            637.000000, 0.000930;
            638.000000, 0.000856;
            639.000000, 0.000788;
            640.000000, 0.000725;
            641.000000, 0.000668;
            642.000000, 0.000615;
            643.000000, 0.000567;
            644.000000, 0.000522;
            645.000000, 0.000481;
            646.000000, 0.000443;
            647.000000, 0.000408;
            648.000000, 0.000377;
            649.000000, 0.000347;
            650.000000, 0.000320;
            651.000000, 0.000295;
            652.000000, 0.000272;
            653.000000, 0.000251;
            654.000000, 0.000232;
            655.000000, 0.000214;
            656.000000, 0.000198;
            657.000000, 0.000183;
            658.000000, 0.000169;
            659.000000, 0.000156;
            660.000000, 0.000144;
            661.000000, 0.000133;
            662.000000, 0.000123;
            663.000000, 0.000114;
            664.000000, 0.000105;
            665.000000, 0.000097;
            666.000000, 0.000090;
            667.000000, 0.000083;
            668.000000, 0.000077;
            669.000000, 0.000071;
            670.000000, 0.000066;
            671.000000, 0.000061;
            672.000000, 0.000057;
            673.000000, 0.000053;
            674.000000, 0.000049;
            675.000000, 0.000045;
            676.000000, 0.000042;
            677.000000, 0.000039;
            678.000000, 0.000036;
            679.000000, 0.000033;
            680.000000, 0.000031;
            681.000000, 0.000029;
            682.000000, 0.000027;
            683.000000, 0.000025;
            684.000000, 0.000023;
            685.000000, 0.000021;
            686.000000, 0.000020;
            687.000000, 0.000018;
            688.000000, 0.000017;
            689.000000, 0.000016;
            690.000000, 0.000015;
            691.000000, 0.000014;
            692.000000, 0.000013;
            693.000000, 0.000012;
            694.000000, 0.000011;
            695.000000, 0.000010;
            696.000000, 0.000010;
            697.000000, 0.000009;
            698.000000, 0.000008;
            699.000000, 0.000008;
            700.000000, 0.000007;
            701.000000, 0.000007;
            702.000000, 0.000006;
            703.000000, 0.000006;
            704.000000, 0.000005;
            705.000000, 0.000005;
            706.000000, 0.000005;
            707.000000, 0.000004;
            708.000000, 0.000004;
            709.000000, 0.000004;
            710.000000, 0.000004;
            711.000000, 0.000003;
            712.000000, 0.000003;
            713.000000, 0.000003;
            714.000000, 0.000003;
            715.000000, 0.000003;
            716.000000, 0.000002;
            717.000000, 0.000002;
            718.000000, 0.000002;
            719.000000, 0.000002;
            720.000000, 0.000002];
        
        S_CONE_SPECTRUM = [ ...
            370.000000, 0.207125;
            371.000000, 0.214764;
            372.000000, 0.222709;
            373.000000, 0.230965;
            374.000000, 0.239541;
            375.000000, 0.248441;
            376.000000, 0.257672;
            377.000000, 0.267240;
            378.000000, 0.277148;
            379.000000, 0.287402;
            380.000000, 0.298004;
            381.000000, 0.308958;
            382.000000, 0.320265;
            383.000000, 0.331927;
            384.000000, 0.343943;
            385.000000, 0.356314;
            386.000000, 0.369037;
            387.000000, 0.382109;
            388.000000, 0.395525;
            389.000000, 0.409281;
            390.000000, 0.423368;
            391.000000, 0.437780;
            392.000000, 0.452505;
            393.000000, 0.467532;
            394.000000, 0.482849;
            395.000000, 0.498439;
            396.000000, 0.514288;
            397.000000, 0.530377;
            398.000000, 0.546686;
            399.000000, 0.563192;
            400.000000, 0.579874;
            401.000000, 0.596705;
            402.000000, 0.613659;
            403.000000, 0.630706;
            404.000000, 0.647817;
            405.000000, 0.664959;
            406.000000, 0.682098;
            407.000000, 0.699200;
            408.000000, 0.716227;
            409.000000, 0.733142;
            410.000000, 0.749906;
            411.000000, 0.766478;
            412.000000, 0.782817;
            413.000000, 0.798881;
            414.000000, 0.814627;
            415.000000, 0.830013;
            416.000000, 0.844994;
            417.000000, 0.859528;
            418.000000, 0.873570;
            419.000000, 0.887079;
            420.000000, 0.900010;
            421.000000, 0.912324;
            422.000000, 0.923977;
            423.000000, 0.934932;
            424.000000, 0.945150;
            425.000000, 0.954594;
            426.000000, 0.963230;
            427.000000, 0.971025;
            428.000000, 0.977947;
            429.000000, 0.983971;
            430.000000, 0.989069;
            431.000000, 0.993220;
            432.000000, 0.996403;
            433.000000, 0.998603;
            434.000000, 0.999805;
            435.000000, 1.000000;
            436.000000, 0.999181;
            437.000000, 0.997345;
            438.000000, 0.994491;
            439.000000, 0.990624;
            440.000000, 0.985751;
            441.000000, 0.979882;
            442.000000, 0.973032;
            443.000000, 0.965219;
            444.000000, 0.956462;
            445.000000, 0.946786;
            446.000000, 0.936217;
            447.000000, 0.924787;
            448.000000, 0.912527;
            449.000000, 0.899473;
            450.000000, 0.885662;
            451.000000, 0.871134;
            452.000000, 0.855931;
            453.000000, 0.840096;
            454.000000, 0.823674;
            455.000000, 0.806712;
            456.000000, 0.789256;
            457.000000, 0.771354;
            458.000000, 0.753056;
            459.000000, 0.734409;
            460.000000, 0.715462;
            461.000000, 0.696265;
            462.000000, 0.676866;
            463.000000, 0.657311;
            464.000000, 0.637649;
            465.000000, 0.617924;
            466.000000, 0.598182;
            467.000000, 0.578465;
            468.000000, 0.558815;
            469.000000, 0.539272;
            470.000000, 0.519874;
            471.000000, 0.500659;
            472.000000, 0.481659;
            473.000000, 0.462907;
            474.000000, 0.444433;
            475.000000, 0.426265;
            476.000000, 0.408429;
            477.000000, 0.390948;
            478.000000, 0.373843;
            479.000000, 0.357133;
            480.000000, 0.340835;
            481.000000, 0.324964;
            482.000000, 0.309532;
            483.000000, 0.294548;
            484.000000, 0.280023;
            485.000000, 0.265961;
            486.000000, 0.252368;
            487.000000, 0.239246;
            488.000000, 0.226597;
            489.000000, 0.214419;
            490.000000, 0.202711;
            491.000000, 0.191470;
            492.000000, 0.180691;
            493.000000, 0.170368;
            494.000000, 0.160494;
            495.000000, 0.151061;
            496.000000, 0.142061;
            497.000000, 0.133483;
            498.000000, 0.125318;
            499.000000, 0.117555;
            500.000000, 0.110183;
            501.000000, 0.103189;
            502.000000, 0.096561;
            503.000000, 0.090288;
            504.000000, 0.084357;
            505.000000, 0.078754;
            506.000000, 0.073468;
            507.000000, 0.068485;
            508.000000, 0.063793;
            509.000000, 0.059379;
            510.000000, 0.055231;
            511.000000, 0.051336;
            512.000000, 0.047683;
            513.000000, 0.044260;
            514.000000, 0.041054;
            515.000000, 0.038056;
            516.000000, 0.035253;
            517.000000, 0.032637;
            518.000000, 0.030195;
            519.000000, 0.027919;
            520.000000, 0.025799;
            521.000000, 0.023826;
            522.000000, 0.021991;
            523.000000, 0.020285;
            524.000000, 0.018702;
            525.000000, 0.017233;
            526.000000, 0.015870;
            527.000000, 0.014608;
            528.000000, 0.013440;
            529.000000, 0.012359;
            530.000000, 0.011359;
            531.000000, 0.010435;
            532.000000, 0.009582;
            533.000000, 0.008795;
            534.000000, 0.008069;
            535.000000, 0.007400;
            536.000000, 0.006784;
            537.000000, 0.006216;
            538.000000, 0.005694;
            539.000000, 0.005214;
            540.000000, 0.004772;
            541.000000, 0.004367;
            542.000000, 0.003994;
            543.000000, 0.003652;
            544.000000, 0.003339;
            545.000000, 0.003051;
            546.000000, 0.002788;
            547.000000, 0.002546;
            548.000000, 0.002325;
            549.000000, 0.002123;
            550.000000, 0.001938;
            551.000000, 0.001768;
            552.000000, 0.001613;
            553.000000, 0.001472;
            554.000000, 0.001342;
            555.000000, 0.001224;
            556.000000, 0.001116;
            557.000000, 0.001018;
            558.000000, 0.000928;
            559.000000, 0.000845;
            560.000000, 0.000770;
            561.000000, 0.000702;
            562.000000, 0.000640;
            563.000000, 0.000583;
            564.000000, 0.000531;
            565.000000, 0.000484;
            566.000000, 0.000441;
            567.000000, 0.000402;
            568.000000, 0.000366;
            569.000000, 0.000334;
            570.000000, 0.000304;
            571.000000, 0.000277;
            572.000000, 0.000252;
            573.000000, 0.000230;
            574.000000, 0.000210;
            575.000000, 0.000191;
            576.000000, 0.000174;
            577.000000, 0.000159;
            578.000000, 0.000145;
            579.000000, 0.000132;
            580.000000, 0.000121;
            581.000000, 0.000110;
            582.000000, 0.000100;
            583.000000, 0.000092;
            584.000000, 0.000084;
            585.000000, 0.000076;
            586.000000, 0.000070;
            587.000000, 0.000064;
            588.000000, 0.000058;
            589.000000, 0.000053;
            590.000000, 0.000049;
            591.000000, 0.000045;
            592.000000, 0.000041;
            593.000000, 0.000037;
            594.000000, 0.000034;
            595.000000, 0.000031;
            596.000000, 0.000029;
            597.000000, 0.000026;
            598.000000, 0.000024;
            599.000000, 0.000022;
            600.000000, 0.000020;
            601.000000, 0.000019;
            602.000000, 0.000017;
            603.000000, 0.000016;
            604.000000, 0.000014;
            605.000000, 0.000013;
            606.000000, 0.000012;
            607.000000, 0.000011;
            608.000000, 0.000010;
            609.000000, 0.000009;
            610.000000, 0.000009;
            611.000000, 0.000008;
            612.000000, 0.000007;
            613.000000, 0.000007;
            614.000000, 0.000006;
            615.000000, 0.000006;
            616.000000, 0.000005;
            617.000000, 0.000005;
            618.000000, 0.000005;
            619.000000, 0.000004;
            620.000000, 0.000004;
            621.000000, 0.000004;
            622.000000, 0.000003;
            623.000000, 0.000003;
            624.000000, 0.000003;
            625.000000, 0.000003;
            626.000000, 0.000002;
            627.000000, 0.000002;
            628.000000, 0.000002;
            629.000000, 0.000002;
            630.000000, 0.000002;
            631.000000, 0.000002;
            632.000000, 0.000002;
            633.000000, 0.000001;
            634.000000, 0.000001;
            635.000000, 0.000001;
            636.000000, 0.000001;
            637.000000, 0.000001;
            638.000000, 0.000001;
            639.000000, 0.000001;
            640.000000, 0.000001;
            641.000000, 0.000001;
            642.000000, 0.000001;
            643.000000, 0.000001;
            644.000000, 0.000001;
            645.000000, 0.000001;
            646.000000, 0.000001;
            647.000000, 0.000001;
            648.000000, 0.000000;
            649.000000, 0.000000;
            650.000000, 0.000000;
            651.000000, 0.000000;
            652.000000, 0.000000;
            653.000000, 0.000000;
            654.000000, 0.000000;
            655.000000, 0.000000;
            656.000000, 0.000000;
            657.000000, 0.000000;
            658.000000, 0.000000;
            659.000000, 0.000000;
            660.000000, 0.000000;
            661.000000, 0.000000;
            662.000000, 0.000000;
            663.000000, 0.000000;
            664.000000, 0.000000;
            665.000000, 0.000000;
            666.000000, 0.000000;
            667.000000, 0.000000;
            668.000000, 0.000000;
            669.000000, 0.000000;
            670.000000, 0.000000;
            671.000000, 0.000000;
            672.000000, 0.000000;
            673.000000, 0.000000;
            674.000000, 0.000000;
            675.000000, 0.000000;
            676.000000, 0.000000;
            677.000000, 0.000000;
            678.000000, 0.000000;
            679.000000, 0.000000;
            680.000000, 0.000000;
            681.000000, 0.000000;
            682.000000, 0.000000;
            683.000000, 0.000000;
            684.000000, 0.000000;
            685.000000, 0.000000;
            686.000000, 0.000000;
            687.000000, 0.000000;
            688.000000, 0.000000;
            689.000000, 0.000000;
            690.000000, 0.000000;
            691.000000, 0.000000;
            692.000000, 0.000000;
            693.000000, 0.000000;
            694.000000, 0.000000;
            695.000000, 0.000000;
            696.000000, 0.000000;
            697.000000, 0.000000;
            698.000000, 0.000000;
            699.000000, 0.000000;
            700.000000, 0.000000;
            701.000000, 0.000000;
            702.000000, 0.000000;
            703.000000, 0.000000;
            704.000000, 0.000000;
            705.000000, 0.000000;
            706.000000, 0.000000;
            707.000000, 0.000000;
            708.000000, 0.000000;
            709.000000, 0.000000;
            710.000000, 0.000000;
            711.000000, 0.000000;
            712.000000, 0.000000;
            713.000000, 0.000000;
            714.000000, 0.000000;
            715.000000, 0.000000;
            716.000000, 0.000000;
            717.000000, 0.000000;
            718.000000, 0.000000;
            719.000000, 0.000000;
            720.000000, 0.000000];
        
    end
    
end

