classdef MouseSubject < edu.washington.rieke.sources.Subject
    
    methods
        
        function obj = MouseSubject()
            import symphonyui.core.*;
            
            obj.propertyDescriptors = [ ...
                obj.propertyDescriptors, ...
                PropertyDescriptor('genotype', {}, ...
                    'type', PropertyType('cellstr', 'row', {'C57B6', 'Rho 19', 'Rho 18', 'STM', 'TTM', 'Arr1 KO', 'GRK1 KO', 'GCAP KO', 'GJD2-GFP', 'DACT2-GFP', 'PLCXD2-GFP', 'NeuroD6 Cre', 'Grm6-tdTomato', 'Grm6-cre1', 'Ai27 (floxed ChR2-tdTomato)', 'Cx36-/-'}), ... 
                    'description', 'Genetic strain'), ...
                ];
            
            photoreceptors = containers.Map();
            photoreceptors('mCone')     = struct('collectingArea', 0.20, 'spectrum', obj.M_CONE_SPECTRUM);
            photoreceptors('rod')       = struct('collectingArea', 0.50, 'spectrum', obj.ROD_SPECTRUM);
            photoreceptors('sCone')     = struct('collectingArea', 0.20, 'spectrum', obj.S_CONE_SPECTRUM);
            obj.resources('photoreceptors') = photoreceptors;
        end
        
    end
    
    properties (Constant)
        
        M_CONE_SPECTRUM = [ ...
            350.000000, 0.265552;
            350.500000, 0.265635;
            351.000000, 0.265684;
            351.500000, 0.265701;
            352.000000, 0.265685;
            352.500000, 0.265637;
            353.000000, 0.265557;
            353.500000, 0.265445;
            354.000000, 0.265301;
            354.500000, 0.265127;
            355.000000, 0.264921;
            355.500000, 0.264685;
            356.000000, 0.264418;
            356.500000, 0.264121;
            357.000000, 0.263795;
            357.500000, 0.263440;
            358.000000, 0.263057;
            358.500000, 0.262645;
            359.000000, 0.262205;
            359.500000, 0.261738;
            360.000000, 0.261244;
            360.500000, 0.260723;
            361.000000, 0.260177;
            361.500000, 0.259606;
            362.000000, 0.259010;
            362.500000, 0.258390;
            363.000000, 0.257747;
            363.500000, 0.257080;
            364.000000, 0.256391;
            364.500000, 0.255681;
            365.000000, 0.254950;
            365.500000, 0.254198;
            366.000000, 0.253427;
            366.500000, 0.252637;
            367.000000, 0.251828;
            367.500000, 0.251002;
            368.000000, 0.250159;
            368.500000, 0.249301;
            369.000000, 0.248427;
            369.500000, 0.247538;
            370.000000, 0.246636;
            370.500000, 0.245721;
            371.000000, 0.244794;
            371.500000, 0.243856;
            372.000000, 0.242907;
            372.500000, 0.241949;
            373.000000, 0.240982;
            373.500000, 0.240007;
            374.000000, 0.239025;
            374.500000, 0.238037;
            375.000000, 0.237044;
            375.500000, 0.236047;
            376.000000, 0.235046;
            376.500000, 0.234042;
            377.000000, 0.233037;
            377.500000, 0.232032;
            378.000000, 0.231026;
            378.500000, 0.230022;
            379.000000, 0.229020;
            379.500000, 0.228021;
            380.000000, 0.227026;
            380.500000, 0.226036;
            381.000000, 0.225052;
            381.500000, 0.224075;
            382.000000, 0.223106;
            382.500000, 0.222146;
            383.000000, 0.221195;
            383.500000, 0.220256;
            384.000000, 0.219328;
            384.500000, 0.218413;
            385.000000, 0.217511;
            385.500000, 0.216625;
            386.000000, 0.215753;
            386.500000, 0.214899;
            387.000000, 0.214062;
            387.500000, 0.213244;
            388.000000, 0.212446;
            388.500000, 0.211667;
            389.000000, 0.210911;
            389.500000, 0.210177;
            390.000000, 0.209466;
            390.500000, 0.208780;
            391.000000, 0.208119;
            391.500000, 0.207484;
            392.000000, 0.206877;
            392.500000, 0.206298;
            393.000000, 0.205748;
            393.500000, 0.205228;
            394.000000, 0.204739;
            394.500000, 0.204282;
            395.000000, 0.203858;
            395.500000, 0.203467;
            396.000000, 0.203111;
            396.500000, 0.202791;
            397.000000, 0.202507;
            397.500000, 0.202261;
            398.000000, 0.202052;
            398.500000, 0.201883;
            399.000000, 0.201753;
            399.500000, 0.201665;
            400.000000, 0.201617;
            400.500000, 0.201612;
            401.000000, 0.201651;
            401.500000, 0.201733;
            402.000000, 0.201860;
            402.500000, 0.202033;
            403.000000, 0.202252;
            403.500000, 0.202518;
            404.000000, 0.202832;
            404.500000, 0.203195;
            405.000000, 0.203607;
            405.500000, 0.204069;
            406.000000, 0.204582;
            406.500000, 0.205146;
            407.000000, 0.205762;
            407.500000, 0.206431;
            408.000000, 0.207154;
            408.500000, 0.207930;
            409.000000, 0.208761;
            409.500000, 0.209647;
            410.000000, 0.210590;
            410.500000, 0.211588;
            411.000000, 0.212644;
            411.500000, 0.213756;
            412.000000, 0.214927;
            412.500000, 0.216157;
            413.000000, 0.217445;
            413.500000, 0.218793;
            414.000000, 0.220201;
            414.500000, 0.221670;
            415.000000, 0.223199;
            415.500000, 0.224789;
            416.000000, 0.226441;
            416.500000, 0.228154;
            417.000000, 0.229930;
            417.500000, 0.231769;
            418.000000, 0.233671;
            418.500000, 0.235636;
            419.000000, 0.237664;
            419.500000, 0.239756;
            420.000000, 0.241912;
            420.500000, 0.244132;
            421.000000, 0.246416;
            421.500000, 0.248765;
            422.000000, 0.251179;
            422.500000, 0.253658;
            423.000000, 0.256201;
            423.500000, 0.258809;
            424.000000, 0.261483;
            424.500000, 0.264221;
            425.000000, 0.267025;
            425.500000, 0.269893;
            426.000000, 0.272827;
            426.500000, 0.275826;
            427.000000, 0.278889;
            427.500000, 0.282018;
            428.000000, 0.285211;
            428.500000, 0.288469;
            429.000000, 0.291791;
            429.500000, 0.295177;
            430.000000, 0.298627;
            430.500000, 0.302141;
            431.000000, 0.305719;
            431.500000, 0.309359;
            432.000000, 0.313063;
            432.500000, 0.316829;
            433.000000, 0.320657;
            433.500000, 0.324547;
            434.000000, 0.328498;
            434.500000, 0.332511;
            435.000000, 0.336583;
            435.500000, 0.340716;
            436.000000, 0.344908;
            436.500000, 0.349160;
            437.000000, 0.353469;
            437.500000, 0.357837;
            438.000000, 0.362262;
            438.500000, 0.366743;
            439.000000, 0.371281;
            439.500000, 0.375873;
            440.000000, 0.380520;
            440.500000, 0.385221;
            441.000000, 0.389976;
            441.500000, 0.394782;
            442.000000, 0.399640;
            442.500000, 0.404549;
            443.000000, 0.409508;
            443.500000, 0.414516;
            444.000000, 0.419572;
            444.500000, 0.424676;
            445.000000, 0.429826;
            445.500000, 0.435021;
            446.000000, 0.440261;
            446.500000, 0.445544;
            447.000000, 0.450870;
            447.500000, 0.456237;
            448.000000, 0.461644;
            448.500000, 0.467091;
            449.000000, 0.472577;
            449.500000, 0.478099;
            450.000000, 0.483658;
            450.500000, 0.489251;
            451.000000, 0.494878;
            451.500000, 0.500538;
            452.000000, 0.506230;
            452.500000, 0.511951;
            453.000000, 0.517702;
            453.500000, 0.523480;
            454.000000, 0.529285;
            454.500000, 0.535115;
            455.000000, 0.540970;
            455.500000, 0.546847;
            456.000000, 0.552745;
            456.500000, 0.558664;
            457.000000, 0.564601;
            457.500000, 0.570556;
            458.000000, 0.576527;
            458.500000, 0.582513;
            459.000000, 0.588512;
            459.500000, 0.594523;
            460.000000, 0.600545;
            460.500000, 0.606576;
            461.000000, 0.612615;
            461.500000, 0.618660;
            462.000000, 0.624711;
            462.500000, 0.630765;
            463.000000, 0.636821;
            463.500000, 0.642877;
            464.000000, 0.648933;
            464.500000, 0.654987;
            465.000000, 0.661037;
            465.500000, 0.667082;
            466.000000, 0.673121;
            466.500000, 0.679151;
            467.000000, 0.685172;
            467.500000, 0.691181;
            468.000000, 0.697178;
            468.500000, 0.703161;
            469.000000, 0.709129;
            469.500000, 0.715080;
            470.000000, 0.721012;
            470.500000, 0.726924;
            471.000000, 0.732814;
            471.500000, 0.738682;
            472.000000, 0.744524;
            472.500000, 0.750341;
            473.000000, 0.756130;
            473.500000, 0.761890;
            474.000000, 0.767620;
            474.500000, 0.773317;
            475.000000, 0.778980;
            475.500000, 0.784609;
            476.000000, 0.790200;
            476.500000, 0.795753;
            477.000000, 0.801267;
            477.500000, 0.806739;
            478.000000, 0.812168;
            478.500000, 0.817553;
            479.000000, 0.822892;
            479.500000, 0.828183;
            480.000000, 0.833425;
            480.500000, 0.838617;
            481.000000, 0.843757;
            481.500000, 0.848842;
            482.000000, 0.853873;
            482.500000, 0.858847;
            483.000000, 0.863762;
            483.500000, 0.868618;
            484.000000, 0.873412;
            484.500000, 0.878143;
            485.000000, 0.882810;
            485.500000, 0.887411;
            486.000000, 0.891943;
            486.500000, 0.896407;
            487.000000, 0.900800;
            487.500000, 0.905120;
            488.000000, 0.909367;
            488.500000, 0.913538;
            489.000000, 0.917632;
            489.500000, 0.921648;
            490.000000, 0.925583;
            490.500000, 0.929437;
            491.000000, 0.933207;
            491.500000, 0.936893;
            492.000000, 0.940492;
            492.500000, 0.944003;
            493.000000, 0.947424;
            493.500000, 0.950755;
            494.000000, 0.953993;
            494.500000, 0.957136;
            495.000000, 0.960184;
            495.500000, 0.963135;
            496.000000, 0.965987;
            496.500000, 0.968738;
            497.000000, 0.971388;
            497.500000, 0.973934;
            498.000000, 0.976375;
            498.500000, 0.978711;
            499.000000, 0.980938;
            499.500000, 0.983056;
            500.000000, 0.985063;
            500.500000, 0.986958;
            501.000000, 0.988739;
            501.500000, 0.990406;
            502.000000, 0.991956;
            502.500000, 0.993388;
            503.000000, 0.994701;
            503.500000, 0.995893;
            504.000000, 0.996964;
            504.500000, 0.997911;
            505.000000, 0.998734;
            505.500000, 0.999432;
            506.000000, 1.000003;
            506.500000, 1.000446;
            507.000000, 1.000760;
            507.500000, 1.000943;
            508.000000, 1.000996;
            508.500000, 1.000916;
            509.000000, 1.000704;
            509.500000, 1.000357;
            510.000000, 0.999875;
            510.500000, 0.999257;
            511.000000, 0.998503;
            511.500000, 0.997611;
            512.000000, 0.996581;
            512.500000, 0.995413;
            513.000000, 0.994105;
            513.500000, 0.992658;
            514.000000, 0.991070;
            514.500000, 0.989342;
            515.000000, 0.987473;
            515.500000, 0.985463;
            516.000000, 0.983311;
            516.500000, 0.981019;
            517.000000, 0.978584;
            517.500000, 0.976009;
            518.000000, 0.973292;
            518.500000, 0.970434;
            519.000000, 0.967435;
            519.500000, 0.964296;
            520.000000, 0.961017;
            520.500000, 0.957598;
            521.000000, 0.954041;
            521.500000, 0.950345;
            522.000000, 0.946512;
            522.500000, 0.942543;
            523.000000, 0.938438;
            523.500000, 0.934198;
            524.000000, 0.929825;
            524.500000, 0.925320;
            525.000000, 0.920684;
            525.500000, 0.915919;
            526.000000, 0.911025;
            526.500000, 0.906006;
            527.000000, 0.900861;
            527.500000, 0.895594;
            528.000000, 0.890205;
            528.500000, 0.884697;
            529.000000, 0.879072;
            529.500000, 0.873332;
            530.000000, 0.867478;
            530.500000, 0.861514;
            531.000000, 0.855441;
            531.500000, 0.849262;
            532.000000, 0.842980;
            532.500000, 0.836596;
            533.000000, 0.830114;
            533.500000, 0.823536;
            534.000000, 0.816864;
            534.500000, 0.810102;
            535.000000, 0.803253;
            535.500000, 0.796318;
            536.000000, 0.789302;
            536.500000, 0.782207;
            537.000000, 0.775036;
            537.500000, 0.767792;
            538.000000, 0.760478;
            538.500000, 0.753098;
            539.000000, 0.745654;
            539.500000, 0.738150;
            540.000000, 0.730588;
            540.500000, 0.722973;
            541.000000, 0.715306;
            541.500000, 0.707592;
            542.000000, 0.699834;
            542.500000, 0.692034;
            543.000000, 0.684196;
            543.500000, 0.676324;
            544.000000, 0.668420;
            544.500000, 0.660487;
            545.000000, 0.652530;
            545.500000, 0.644550;
            546.000000, 0.636551;
            546.500000, 0.628536;
            547.000000, 0.620509;
            547.500000, 0.612472;
            548.000000, 0.604428;
            548.500000, 0.596380;
            549.000000, 0.588332;
            549.500000, 0.580285;
            550.000000, 0.572244;
            550.500000, 0.564210;
            551.000000, 0.556186;
            551.500000, 0.548176;
            552.000000, 0.540182;
            552.500000, 0.532205;
            553.000000, 0.524250;
            553.500000, 0.516319;
            554.000000, 0.508413;
            554.500000, 0.500535;
            555.000000, 0.492688;
            555.500000, 0.484874;
            556.000000, 0.477095;
            556.500000, 0.469353;
            557.000000, 0.461651;
            557.500000, 0.453989;
            558.000000, 0.446371;
            558.500000, 0.438798;
            559.000000, 0.431272;
            559.500000, 0.423795;
            560.000000, 0.416369;
            560.500000, 0.408994;
            561.000000, 0.401673;
            561.500000, 0.394408;
            562.000000, 0.387199;
            562.500000, 0.380049;
            563.000000, 0.372958;
            563.500000, 0.365929;
            564.000000, 0.358961;
            564.500000, 0.352057;
            565.000000, 0.345217;
            565.500000, 0.338443;
            566.000000, 0.331736;
            566.500000, 0.325097;
            567.000000, 0.318526;
            567.500000, 0.312025;
            568.000000, 0.305595;
            568.500000, 0.299235;
            569.000000, 0.292948;
            569.500000, 0.286734;
            570.000000, 0.280593;
            570.500000, 0.274526;
            571.000000, 0.268534;
            571.500000, 0.262617;
            572.000000, 0.256776;
            572.500000, 0.251011;
            573.000000, 0.245323;
            573.500000, 0.239712;
            574.000000, 0.234178;
            574.500000, 0.228722;
            575.000000, 0.223345;
            575.500000, 0.218045;
            576.000000, 0.212824;
            576.500000, 0.207682;
            577.000000, 0.202619;
            577.500000, 0.197635;
            578.000000, 0.192729;
            578.500000, 0.187903;
            579.000000, 0.183157;
            579.500000, 0.178489;
            580.000000, 0.173900;
            580.500000, 0.169390;
            581.000000, 0.164959;
            581.500000, 0.160607;
            582.000000, 0.156334;
            582.500000, 0.152138;
            583.000000, 0.148021;
            583.500000, 0.143982;
            584.000000, 0.140020;
            584.500000, 0.136135;
            585.000000, 0.132327;
            585.500000, 0.128596;
            586.000000, 0.124940;
            586.500000, 0.121360;
            587.000000, 0.117855;
            587.500000, 0.114424;
            588.000000, 0.111068;
            588.500000, 0.107784;
            589.000000, 0.104574;
            589.500000, 0.101436;
            590.000000, 0.098369;
            590.500000, 0.095373;
            591.000000, 0.092447;
            591.500000, 0.089590;
            592.000000, 0.086802;
            592.500000, 0.084082;
            593.000000, 0.081429;
            593.500000, 0.078842;
            594.000000, 0.076320;
            594.500000, 0.073863;
            595.000000, 0.071469;
            595.500000, 0.069138;
            596.000000, 0.066868;
            596.500000, 0.064660;
            597.000000, 0.062511;
            597.500000, 0.060421;
            598.000000, 0.058389;
            598.500000, 0.056414;
            599.000000, 0.054495;
            599.500000, 0.052631;
            600.000000, 0.050820;
            600.500000, 0.049062;
            601.000000, 0.047357;
            601.500000, 0.045701;
            602.000000, 0.044096;
            602.500000, 0.042539;
            603.000000, 0.041030;
            603.500000, 0.039568;
            604.000000, 0.038151;
            604.500000, 0.036778;
            605.000000, 0.035449;
            605.500000, 0.034163;
            606.000000, 0.032918;
            606.500000, 0.031713;
            607.000000, 0.030548;
            607.500000, 0.029421;
            608.000000, 0.028331;
            608.500000, 0.027278;
            609.000000, 0.026261;
            609.500000, 0.025278;
            610.000000, 0.024328;
            610.500000, 0.023411;
            611.000000, 0.022526;
            611.500000, 0.021671;
            612.000000, 0.020847;
            612.500000, 0.020051;
            613.000000, 0.019284;
            613.500000, 0.018544;
            614.000000, 0.017830;
            614.500000, 0.017143;
            615.000000, 0.016480;
            615.500000, 0.015841;
            616.000000, 0.015225;
            616.500000, 0.014632;
            617.000000, 0.014061;
            617.500000, 0.013511;
            618.000000, 0.012982;
            618.500000, 0.012472;
            619.000000, 0.011981;
            619.500000, 0.011509;
            620.000000, 0.011055;
            620.500000, 0.010618;
            621.000000, 0.010197;
            621.500000, 0.009793;
            622.000000, 0.009404;
            622.500000, 0.009030;
            623.000000, 0.008670;
            623.500000, 0.008325;
            624.000000, 0.007992;
            624.500000, 0.007673;
            625.000000, 0.007366;
            625.500000, 0.007071;
            626.000000, 0.006788;
            626.500000, 0.006516;
            627.000000, 0.006254;
            627.500000, 0.006003;
            628.000000, 0.005762;
            628.500000, 0.005530;
            629.000000, 0.005307;
            629.500000, 0.005094;
            630.000000, 0.004888;
            630.500000, 0.004691;
            631.000000, 0.004502;
            631.500000, 0.004321;
            632.000000, 0.004146;
            632.500000, 0.003979;
            633.000000, 0.003818;
            633.500000, 0.003664;
            634.000000, 0.003516;
            634.500000, 0.003374;
            635.000000, 0.003238;
            635.500000, 0.003107;
            636.000000, 0.002982;
            636.500000, 0.002861;
            637.000000, 0.002746;
            637.500000, 0.002635;
            638.000000, 0.002529;
            638.500000, 0.002427;
            639.000000, 0.002329;
            639.500000, 0.002235;
            640.000000, 0.002145;
            640.500000, 0.002058;
            641.000000, 0.001975;
            641.500000, 0.001896;
            642.000000, 0.001819;
            642.500000, 0.001746;
            643.000000, 0.001676;
            643.500000, 0.001609;
            644.000000, 0.001544;
            644.500000, 0.001482;
            645.000000, 0.001423;
            645.500000, 0.001365;
            646.000000, 0.001311;
            646.500000, 0.001258;
            647.000000, 0.001208;
            647.500000, 0.001160;
            648.000000, 0.001113;
            648.500000, 0.001069;
            649.000000, 0.001026;
            649.500000, 0.000985;
            650.000000, 0.000946;
            650.500000, 0.000908;
            651.000000, 0.000872;
            651.500000, 0.000837;
            652.000000, 0.000804;
            652.500000, 0.000772;
            653.000000, 0.000741;
            653.500000, 0.000712;
            654.000000, 0.000684;
            654.500000, 0.000657;
            655.000000, 0.000631;
            655.500000, 0.000606;
            656.000000, 0.000582;
            656.500000, 0.000559;
            657.000000, 0.000537;
            657.500000, 0.000516;
            658.000000, 0.000496;
            658.500000, 0.000476;
            659.000000, 0.000458;
            659.500000, 0.000440;
            660.000000, 0.000422;
            660.500000, 0.000406;
            661.000000, 0.000390;
            661.500000, 0.000375;
            662.000000, 0.000360;
            662.500000, 0.000346;
            663.000000, 0.000333;
            663.500000, 0.000320;
            664.000000, 0.000307;
            664.500000, 0.000296;
            665.000000, 0.000284;
            665.500000, 0.000273;
            666.000000, 0.000263;
            666.500000, 0.000252;
            667.000000, 0.000243;
            667.500000, 0.000233;
            668.000000, 0.000224;
            668.500000, 0.000216;
            669.000000, 0.000207;
            669.500000, 0.000200;
            670.000000, 0.000192;
            670.500000, 0.000185;
            671.000000, 0.000178;
            671.500000, 0.000171;
            672.000000, 0.000164;
            672.500000, 0.000158;
            673.000000, 0.000152;
            673.500000, 0.000146;
            674.000000, 0.000141;
            674.500000, 0.000135;
            675.000000, 0.000130;
            675.500000, 0.000125;
            676.000000, 0.000121;
            676.500000, 0.000116;
            677.000000, 0.000112;
            677.500000, 0.000108;
            678.000000, 0.000103;
            678.500000, 0.000100;
            679.000000, 0.000096;
            679.500000, 0.000092;
            680.000000, 0.000089;
            680.500000, 0.000086;
            681.000000, 0.000082;
            681.500000, 0.000079;
            682.000000, 0.000076;
            682.500000, 0.000074;
            683.000000, 0.000071;
            683.500000, 0.000068;
            684.000000, 0.000066;
            684.500000, 0.000063;
            685.000000, 0.000061;
            685.500000, 0.000059;
            686.000000, 0.000057;
            686.500000, 0.000054;
            687.000000, 0.000052;
            687.500000, 0.000051;
            688.000000, 0.000049;
            688.500000, 0.000047;
            689.000000, 0.000045;
            689.500000, 0.000044;
            690.000000, 0.000042;
            690.500000, 0.000040;
            691.000000, 0.000039;
            691.500000, 0.000038;
            692.000000, 0.000036;
            692.500000, 0.000035;
            693.000000, 0.000034;
            693.500000, 0.000032;
            694.000000, 0.000031;
            694.500000, 0.000030;
            695.000000, 0.000029;
            695.500000, 0.000028;
            696.000000, 0.000027;
            696.500000, 0.000026;
            697.000000, 0.000025;
            697.500000, 0.000024;
            698.000000, 0.000023;
            698.500000, 0.000023;
            699.000000, 0.000022;
            699.500000, 0.000021;
            700.000000, 0.000020;
            700.500000, 0.000019;
            701.000000, 0.000019;
            701.500000, 0.000018;
            702.000000, 0.000018;
            702.500000, 0.000017;
            703.000000, 0.000016;
            703.500000, 0.000016;
            704.000000, 0.000015;
            704.500000, 0.000015;
            705.000000, 0.000014;
            705.500000, 0.000014;
            706.000000, 0.000013;
            706.500000, 0.000013;
            707.000000, 0.000012;
            707.500000, 0.000012;
            708.000000, 0.000011;
            708.500000, 0.000011;
            709.000000, 0.000011;
            709.500000, 0.000010;
            710.000000, 0.000010;
            710.500000, 0.000010;
            711.000000, 0.000009;
            711.500000, 0.000009;
            712.000000, 0.000009;
            712.500000, 0.000008;
            713.000000, 0.000008;
            713.500000, 0.000008;
            714.000000, 0.000008;
            714.500000, 0.000007;
            715.000000, 0.000007;
            715.500000, 0.000007;
            716.000000, 0.000007;
            716.500000, 0.000006;
            717.000000, 0.000006;
            717.500000, 0.000006;
            718.000000, 0.000006;
            718.500000, 0.000006;
            719.000000, 0.000005;
            719.500000, 0.000005;
            720.000000, 0.000005;
            720.500000, 0.000005;
            721.000000, 0.000005;
            721.500000, 0.000004;
            722.000000, 0.000004;
            722.500000, 0.000004;
            723.000000, 0.000004;
            723.500000, 0.000004;
            724.000000, 0.000004;
            724.500000, 0.000004;
            725.000000, 0.000004;
            725.500000, 0.000003;
            726.000000, 0.000003;
            726.500000, 0.000003;
            727.000000, 0.000003;
            727.500000, 0.000003;
            728.000000, 0.000003;
            728.500000, 0.000003;
            729.000000, 0.000003;
            729.500000, 0.000003;
            730.000000, 0.000003;
            730.500000, 0.000002;
            731.000000, 0.000002;
            731.500000, 0.000002;
            732.000000, 0.000002;
            732.500000, 0.000002;
            733.000000, 0.000002;
            733.500000, 0.000002;
            734.000000, 0.000002;
            734.500000, 0.000002;
            735.000000, 0.000002;
            735.500000, 0.000002;
            736.000000, 0.000002;
            736.500000, 0.000002;
            737.000000, 0.000002;
            737.500000, 0.000002;
            738.000000, 0.000002;
            738.500000, 0.000001;
            739.000000, 0.000001;
            739.500000, 0.000001;
            740.000000, 0.000001;
            740.500000, 0.000001;
            741.000000, 0.000001;
            741.500000, 0.000001;
            742.000000, 0.000001;
            742.500000, 0.000001;
            743.000000, 0.000001;
            743.500000, 0.000001;
            744.000000, 0.000001;
            744.500000, 0.000001;
            745.000000, 0.000001;
            745.500000, 0.000001;
            746.000000, 0.000001;
            746.500000, 0.000001;
            747.000000, 0.000001;
            747.500000, 0.000001;
            748.000000, 0.000001;
            748.500000, 0.000001;
            749.000000, 0.000001;
            749.500000, 0.000001;
            750.000000, 0.000001;
            750.500000, 0.000001;
            751.000000, 0.000001;
            751.500000, 0.000001;
            752.000000, 0.000001;
            752.500000, 0.000001;
            753.000000, 0.000001;
            753.500000, 0.000001;
            754.000000, 0.000001;
            754.500000, 0.000001;
            755.000000, 0.000001;
            755.500000, 0.000000;
            756.000000, 0.000000;
            756.500000, 0.000000;
            757.000000, 0.000000;
            757.500000, 0.000000;
            758.000000, 0.000000;
            758.500000, 0.000000;
            759.000000, 0.000000;
            759.500000, 0.000000;
            760.000000, 0.000000;
            760.500000, 0.000000;
            761.000000, 0.000000;
            761.500000, 0.000000;
            762.000000, 0.000000;
            762.500000, 0.000000;
            763.000000, 0.000000;
            763.500000, 0.000000;
            764.000000, 0.000000;
            764.500000, 0.000000;
            765.000000, 0.000000;
            765.500000, 0.000000;
            766.000000, 0.000000;
            766.500000, 0.000000;
            767.000000, 0.000000;
            767.500000, 0.000000;
            768.000000, 0.000000;
            768.500000, 0.000000;
            769.000000, 0.000000;
            769.500000, 0.000000;
            770.000000, 0.000000;
            770.500000, 0.000000;
            771.000000, 0.000000;
            771.500000, 0.000000;
            772.000000, 0.000000;
            772.500000, 0.000000;
            773.000000, 0.000000;
            773.500000, 0.000000;
            774.000000, 0.000000;
            774.500000, 0.000000;
            775.000000, 0.000000;
            775.500000, 0.000000;
            776.000000, 0.000000;
            776.500000, 0.000000;
            777.000000, 0.000000;
            777.500000, 0.000000;
            778.000000, 0.000000;
            778.500000, 0.000000;
            779.000000, 0.000000;
            779.500000, 0.000000;
            780.000000, 0.000000;
            780.500000, 0.000000;
            781.000000, 0.000000;
            781.500000, 0.000000;
            782.000000, 0.000000;
            782.500000, 0.000000;
            783.000000, 0.000000;
            783.500000, 0.000000;
            784.000000, 0.000000;
            784.500000, 0.000000;
            785.000000, 0.000000;
            785.500000, 0.000000;
            786.000000, 0.000000;
            786.500000, 0.000000;
            787.000000, 0.000000;
            787.500000, 0.000000;
            788.000000, 0.000000;
            788.500000, 0.000000;
            789.000000, 0.000000;
            789.500000, 0.000000;
            790.000000, 0.000000;
            790.500000, 0.000000;
            791.000000, 0.000000;
            791.500000, 0.000000;
            792.000000, 0.000000;
            792.500000, 0.000000;
            793.000000, 0.000000;
            793.500000, 0.000000;
            794.000000, 0.000000;
            794.500000, 0.000000;
            795.000000, 0.000000;
            795.500000, 0.000000;
            796.000000, 0.000000;
            796.500000, 0.000000;
            797.000000, 0.000000;
            797.500000, 0.000000;
            798.000000, 0.000000;
            798.500000, 0.000000;
            799.000000, 0.000000;
            799.500000, 0.000000;
            800.000000, 0.000000];
        
        ROD_SPECTRUM = [ ...
            350.000000, 0.132538;
            350.500000, 0.132624;
            351.000000, 0.132699;
            351.500000, 0.132764;
            352.000000, 0.132820;
            352.500000, 0.132865;
            353.000000, 0.132901;
            353.500000, 0.132929;
            354.000000, 0.132948;
            354.500000, 0.132958;
            355.000000, 0.132961;
            355.500000, 0.132957;
            356.000000, 0.132946;
            356.500000, 0.132928;
            357.000000, 0.132905;
            357.500000, 0.132876;
            358.000000, 0.132842;
            358.500000, 0.132803;
            359.000000, 0.132760;
            359.500000, 0.132714;
            360.000000, 0.132665;
            360.500000, 0.132613;
            361.000000, 0.132559;
            361.500000, 0.132504;
            362.000000, 0.132448;
            362.500000, 0.132392;
            363.000000, 0.132337;
            363.500000, 0.132282;
            364.000000, 0.132228;
            364.500000, 0.132177;
            365.000000, 0.132129;
            365.500000, 0.132084;
            366.000000, 0.132043;
            366.500000, 0.132006;
            367.000000, 0.131975;
            367.500000, 0.131950;
            368.000000, 0.131932;
            368.500000, 0.131921;
            369.000000, 0.131918;
            369.500000, 0.131924;
            370.000000, 0.131939;
            370.500000, 0.131964;
            371.000000, 0.132000;
            371.500000, 0.132048;
            372.000000, 0.132108;
            372.500000, 0.132180;
            373.000000, 0.132267;
            373.500000, 0.132368;
            374.000000, 0.132484;
            374.500000, 0.132616;
            375.000000, 0.132765;
            375.500000, 0.132932;
            376.000000, 0.133116;
            376.500000, 0.133319;
            377.000000, 0.133543;
            377.500000, 0.133786;
            378.000000, 0.134051;
            378.500000, 0.134338;
            379.000000, 0.134647;
            379.500000, 0.134981;
            380.000000, 0.135338;
            380.500000, 0.135721;
            381.000000, 0.136129;
            381.500000, 0.136564;
            382.000000, 0.137027;
            382.500000, 0.137518;
            383.000000, 0.138037;
            383.500000, 0.138587;
            384.000000, 0.139166;
            384.500000, 0.139778;
            385.000000, 0.140421;
            385.500000, 0.141097;
            386.000000, 0.141806;
            386.500000, 0.142550;
            387.000000, 0.143329;
            387.500000, 0.144143;
            388.000000, 0.144994;
            388.500000, 0.145882;
            389.000000, 0.146809;
            389.500000, 0.147774;
            390.000000, 0.148778;
            390.500000, 0.149823;
            391.000000, 0.150909;
            391.500000, 0.152036;
            392.000000, 0.153205;
            392.500000, 0.154418;
            393.000000, 0.155674;
            393.500000, 0.156974;
            394.000000, 0.158320;
            394.500000, 0.159711;
            395.000000, 0.161148;
            395.500000, 0.162632;
            396.000000, 0.164164;
            396.500000, 0.165744;
            397.000000, 0.167372;
            397.500000, 0.169051;
            398.000000, 0.170779;
            398.500000, 0.172557;
            399.000000, 0.174387;
            399.500000, 0.176268;
            400.000000, 0.178201;
            400.500000, 0.180187;
            401.000000, 0.182227;
            401.500000, 0.184320;
            402.000000, 0.186467;
            402.500000, 0.188668;
            403.000000, 0.190925;
            403.500000, 0.193237;
            404.000000, 0.195605;
            404.500000, 0.198030;
            405.000000, 0.200511;
            405.500000, 0.203049;
            406.000000, 0.205645;
            406.500000, 0.208298;
            407.000000, 0.211010;
            407.500000, 0.213779;
            408.000000, 0.216608;
            408.500000, 0.219495;
            409.000000, 0.222441;
            409.500000, 0.225447;
            410.000000, 0.228512;
            410.500000, 0.231636;
            411.000000, 0.234821;
            411.500000, 0.238065;
            412.000000, 0.241370;
            412.500000, 0.244734;
            413.000000, 0.248159;
            413.500000, 0.251644;
            414.000000, 0.255190;
            414.500000, 0.258795;
            415.000000, 0.262461;
            415.500000, 0.266187;
            416.000000, 0.269973;
            416.500000, 0.273819;
            417.000000, 0.277725;
            417.500000, 0.281690;
            418.000000, 0.285715;
            418.500000, 0.289799;
            419.000000, 0.293943;
            419.500000, 0.298145;
            420.000000, 0.302406;
            420.500000, 0.306725;
            421.000000, 0.311102;
            421.500000, 0.315536;
            422.000000, 0.320028;
            422.500000, 0.324576;
            423.000000, 0.329181;
            423.500000, 0.333841;
            424.000000, 0.338557;
            424.500000, 0.343328;
            425.000000, 0.348153;
            425.500000, 0.353031;
            426.000000, 0.357963;
            426.500000, 0.362947;
            427.000000, 0.367984;
            427.500000, 0.373071;
            428.000000, 0.378209;
            428.500000, 0.383396;
            429.000000, 0.388633;
            429.500000, 0.393918;
            430.000000, 0.399250;
            430.500000, 0.404629;
            431.000000, 0.410053;
            431.500000, 0.415523;
            432.000000, 0.421036;
            432.500000, 0.426593;
            433.000000, 0.432191;
            433.500000, 0.437831;
            434.000000, 0.443510;
            434.500000, 0.449229;
            435.000000, 0.454986;
            435.500000, 0.460780;
            436.000000, 0.466610;
            436.500000, 0.472474;
            437.000000, 0.478372;
            437.500000, 0.484303;
            438.000000, 0.490265;
            438.500000, 0.496257;
            439.000000, 0.502279;
            439.500000, 0.508327;
            440.000000, 0.514403;
            440.500000, 0.520503;
            441.000000, 0.526628;
            441.500000, 0.532775;
            442.000000, 0.538944;
            442.500000, 0.545132;
            443.000000, 0.551339;
            443.500000, 0.557564;
            444.000000, 0.563804;
            444.500000, 0.570059;
            445.000000, 0.576327;
            445.500000, 0.582607;
            446.000000, 0.588897;
            446.500000, 0.595196;
            447.000000, 0.601503;
            447.500000, 0.607815;
            448.000000, 0.614132;
            448.500000, 0.620452;
            449.000000, 0.626774;
            449.500000, 0.633095;
            450.000000, 0.639415;
            450.500000, 0.645732;
            451.000000, 0.652044;
            451.500000, 0.658351;
            452.000000, 0.664649;
            452.500000, 0.670939;
            453.000000, 0.677218;
            453.500000, 0.683484;
            454.000000, 0.689737;
            454.500000, 0.695974;
            455.000000, 0.702195;
            455.500000, 0.708397;
            456.000000, 0.714578;
            456.500000, 0.720738;
            457.000000, 0.726875;
            457.500000, 0.732986;
            458.000000, 0.739072;
            458.500000, 0.745129;
            459.000000, 0.751156;
            459.500000, 0.757152;
            460.000000, 0.763114;
            460.500000, 0.769043;
            461.000000, 0.774935;
            461.500000, 0.780789;
            462.000000, 0.786603;
            462.500000, 0.792377;
            463.000000, 0.798108;
            463.500000, 0.803794;
            464.000000, 0.809434;
            464.500000, 0.815027;
            465.000000, 0.820570;
            465.500000, 0.826063;
            466.000000, 0.831502;
            466.500000, 0.836888;
            467.000000, 0.842217;
            467.500000, 0.847489;
            468.000000, 0.852702;
            468.500000, 0.857853;
            469.000000, 0.862943;
            469.500000, 0.867967;
            470.000000, 0.872926;
            470.500000, 0.877818;
            471.000000, 0.882640;
            471.500000, 0.887391;
            472.000000, 0.892070;
            472.500000, 0.896674;
            473.000000, 0.901202;
            473.500000, 0.905653;
            474.000000, 0.910024;
            474.500000, 0.914314;
            475.000000, 0.918521;
            475.500000, 0.922644;
            476.000000, 0.926681;
            476.500000, 0.930630;
            477.000000, 0.934490;
            477.500000, 0.938258;
            478.000000, 0.941934;
            478.500000, 0.945515;
            479.000000, 0.949000;
            479.500000, 0.952386;
            480.000000, 0.955674;
            480.500000, 0.958860;
            481.000000, 0.961943;
            481.500000, 0.964921;
            482.000000, 0.967793;
            482.500000, 0.970557;
            483.000000, 0.973212;
            483.500000, 0.975756;
            484.000000, 0.978186;
            484.500000, 0.980503;
            485.000000, 0.982703;
            485.500000, 0.984786;
            486.000000, 0.986749;
            486.500000, 0.988592;
            487.000000, 0.990312;
            487.500000, 0.991909;
            488.000000, 0.993381;
            488.500000, 0.994725;
            489.000000, 0.995942;
            489.500000, 0.997029;
            490.000000, 0.997985;
            490.500000, 0.998809;
            491.000000, 0.999499;
            491.500000, 1.000054;
            492.000000, 1.000473;
            492.500000, 1.000754;
            493.000000, 1.000897;
            493.500000, 1.000900;
            494.000000, 1.000762;
            494.500000, 1.000482;
            495.000000, 1.000060;
            495.500000, 0.999494;
            496.000000, 0.998782;
            496.500000, 0.997926;
            497.000000, 0.996923;
            497.500000, 0.995773;
            498.000000, 0.994476;
            498.500000, 0.993030;
            499.000000, 0.991436;
            499.500000, 0.989692;
            500.000000, 0.987799;
            500.500000, 0.985756;
            501.000000, 0.983563;
            501.500000, 0.981220;
            502.000000, 0.978727;
            502.500000, 0.976083;
            503.000000, 0.973290;
            503.500000, 0.970347;
            504.000000, 0.967254;
            504.500000, 0.964012;
            505.000000, 0.960621;
            505.500000, 0.957082;
            506.000000, 0.953396;
            506.500000, 0.949563;
            507.000000, 0.945585;
            507.500000, 0.941461;
            508.000000, 0.937194;
            508.500000, 0.932784;
            509.000000, 0.928233;
            509.500000, 0.923542;
            510.000000, 0.918712;
            510.500000, 0.913745;
            511.000000, 0.908643;
            511.500000, 0.903407;
            512.000000, 0.898040;
            512.500000, 0.892542;
            513.000000, 0.886917;
            513.500000, 0.881166;
            514.000000, 0.875292;
            514.500000, 0.869297;
            515.000000, 0.863183;
            515.500000, 0.856952;
            516.000000, 0.850608;
            516.500000, 0.844153;
            517.000000, 0.837590;
            517.500000, 0.830921;
            518.000000, 0.824149;
            518.500000, 0.817278;
            519.000000, 0.810310;
            519.500000, 0.803248;
            520.000000, 0.796096;
            520.500000, 0.788856;
            521.000000, 0.781533;
            521.500000, 0.774128;
            522.000000, 0.766646;
            522.500000, 0.759090;
            523.000000, 0.751462;
            523.500000, 0.743768;
            524.000000, 0.736010;
            524.500000, 0.728191;
            525.000000, 0.720315;
            525.500000, 0.712385;
            526.000000, 0.704406;
            526.500000, 0.696380;
            527.000000, 0.688311;
            527.500000, 0.680203;
            528.000000, 0.672058;
            528.500000, 0.663882;
            529.000000, 0.655676;
            529.500000, 0.647444;
            530.000000, 0.639191;
            530.500000, 0.630919;
            531.000000, 0.622631;
            531.500000, 0.614331;
            532.000000, 0.606023;
            532.500000, 0.597709;
            533.000000, 0.589394;
            533.500000, 0.581079;
            534.000000, 0.572768;
            534.500000, 0.564464;
            535.000000, 0.556171;
            535.500000, 0.547891;
            536.000000, 0.539626;
            536.500000, 0.531381;
            537.000000, 0.523158;
            537.500000, 0.514959;
            538.000000, 0.506788;
            538.500000, 0.498646;
            539.000000, 0.490537;
            539.500000, 0.482462;
            540.000000, 0.474425;
            540.500000, 0.466428;
            541.000000, 0.458472;
            541.500000, 0.450561;
            542.000000, 0.442696;
            542.500000, 0.434879;
            543.000000, 0.427113;
            543.500000, 0.419399;
            544.000000, 0.411740;
            544.500000, 0.404137;
            545.000000, 0.396592;
            545.500000, 0.389106;
            546.000000, 0.381681;
            546.500000, 0.374320;
            547.000000, 0.367022;
            547.500000, 0.359791;
            548.000000, 0.352627;
            548.500000, 0.345531;
            549.000000, 0.338505;
            549.500000, 0.331549;
            550.000000, 0.324666;
            550.500000, 0.317857;
            551.000000, 0.311121;
            551.500000, 0.304461;
            552.000000, 0.297877;
            552.500000, 0.291370;
            553.000000, 0.284941;
            553.500000, 0.278591;
            554.000000, 0.272321;
            554.500000, 0.266130;
            555.000000, 0.260021;
            555.500000, 0.253992;
            556.000000, 0.248046;
            556.500000, 0.242182;
            557.000000, 0.236402;
            557.500000, 0.230704;
            558.000000, 0.225090;
            558.500000, 0.219561;
            559.000000, 0.214116;
            559.500000, 0.208755;
            560.000000, 0.203479;
            560.500000, 0.198288;
            561.000000, 0.193183;
            561.500000, 0.188162;
            562.000000, 0.183227;
            562.500000, 0.178378;
            563.000000, 0.173613;
            563.500000, 0.168934;
            564.000000, 0.164339;
            564.500000, 0.159830;
            565.000000, 0.155405;
            565.500000, 0.151065;
            566.000000, 0.146809;
            566.500000, 0.142637;
            567.000000, 0.138549;
            567.500000, 0.134544;
            568.000000, 0.130622;
            568.500000, 0.126782;
            569.000000, 0.123024;
            569.500000, 0.119347;
            570.000000, 0.115751;
            570.500000, 0.112236;
            571.000000, 0.108800;
            571.500000, 0.105442;
            572.000000, 0.102163;
            572.500000, 0.098962;
            573.000000, 0.095837;
            573.500000, 0.092788;
            574.000000, 0.089814;
            574.500000, 0.086914;
            575.000000, 0.084088;
            575.500000, 0.081334;
            576.000000, 0.078652;
            576.500000, 0.076040;
            577.000000, 0.073498;
            577.500000, 0.071024;
            578.000000, 0.068618;
            578.500000, 0.066278;
            579.000000, 0.064003;
            579.500000, 0.061793;
            580.000000, 0.059646;
            580.500000, 0.057561;
            581.000000, 0.055537;
            581.500000, 0.053573;
            582.000000, 0.051668;
            582.500000, 0.049820;
            583.000000, 0.048028;
            583.500000, 0.046292;
            584.000000, 0.044610;
            584.500000, 0.042980;
            585.000000, 0.041402;
            585.500000, 0.039875;
            586.000000, 0.038397;
            586.500000, 0.036967;
            587.000000, 0.035584;
            587.500000, 0.034247;
            588.000000, 0.032955;
            588.500000, 0.031706;
            589.000000, 0.030499;
            589.500000, 0.029334;
            590.000000, 0.028209;
            590.500000, 0.027123;
            591.000000, 0.026075;
            591.500000, 0.025064;
            592.000000, 0.024089;
            592.500000, 0.023149;
            593.000000, 0.022242;
            593.500000, 0.021368;
            594.000000, 0.020526;
            594.500000, 0.019715;
            595.000000, 0.018933;
            595.500000, 0.018181;
            596.000000, 0.017456;
            596.500000, 0.016759;
            597.000000, 0.016087;
            597.500000, 0.015441;
            598.000000, 0.014820;
            598.500000, 0.014222;
            599.000000, 0.013648;
            599.500000, 0.013095;
            600.000000, 0.012563;
            600.500000, 0.012053;
            601.000000, 0.011562;
            601.500000, 0.011090;
            602.000000, 0.010637;
            602.500000, 0.010202;
            603.000000, 0.009783;
            603.500000, 0.009382;
            604.000000, 0.008996;
            604.500000, 0.008626;
            605.000000, 0.008271;
            605.500000, 0.007930;
            606.000000, 0.007602;
            606.500000, 0.007288;
            607.000000, 0.006986;
            607.500000, 0.006697;
            608.000000, 0.006420;
            608.500000, 0.006153;
            609.000000, 0.005898;
            609.500000, 0.005653;
            610.000000, 0.005418;
            610.500000, 0.005193;
            611.000000, 0.004977;
            611.500000, 0.004770;
            612.000000, 0.004571;
            612.500000, 0.004381;
            613.000000, 0.004198;
            613.500000, 0.004023;
            614.000000, 0.003856;
            614.500000, 0.003695;
            615.000000, 0.003541;
            615.500000, 0.003393;
            616.000000, 0.003252;
            616.500000, 0.003116;
            617.000000, 0.002986;
            617.500000, 0.002862;
            618.000000, 0.002743;
            618.500000, 0.002628;
            619.000000, 0.002519;
            619.500000, 0.002414;
            620.000000, 0.002313;
            620.500000, 0.002217;
            621.000000, 0.002125;
            621.500000, 0.002037;
            622.000000, 0.001952;
            622.500000, 0.001871;
            623.000000, 0.001793;
            623.500000, 0.001719;
            624.000000, 0.001647;
            624.500000, 0.001579;
            625.000000, 0.001513;
            625.500000, 0.001451;
            626.000000, 0.001391;
            626.500000, 0.001333;
            627.000000, 0.001278;
            627.500000, 0.001225;
            628.000000, 0.001175;
            628.500000, 0.001126;
            629.000000, 0.001080;
            629.500000, 0.001035;
            630.000000, 0.000993;
            630.500000, 0.000952;
            631.000000, 0.000913;
            631.500000, 0.000875;
            632.000000, 0.000839;
            632.500000, 0.000805;
            633.000000, 0.000772;
            633.500000, 0.000740;
            634.000000, 0.000710;
            634.500000, 0.000681;
            635.000000, 0.000653;
            635.500000, 0.000627;
            636.000000, 0.000601;
            636.500000, 0.000577;
            637.000000, 0.000553;
            637.500000, 0.000531;
            638.000000, 0.000509;
            638.500000, 0.000489;
            639.000000, 0.000469;
            639.500000, 0.000450;
            640.000000, 0.000432;
            640.500000, 0.000414;
            641.000000, 0.000398;
            641.500000, 0.000382;
            642.000000, 0.000366;
            642.500000, 0.000351;
            643.000000, 0.000337;
            643.500000, 0.000324;
            644.000000, 0.000311;
            644.500000, 0.000298;
            645.000000, 0.000287;
            645.500000, 0.000275;
            646.000000, 0.000264;
            646.500000, 0.000254;
            647.000000, 0.000244;
            647.500000, 0.000234;
            648.000000, 0.000225;
            648.500000, 0.000216;
            649.000000, 0.000207;
            649.500000, 0.000199;
            650.000000, 0.000191;
            650.500000, 0.000184;
            651.000000, 0.000176;
            651.500000, 0.000169;
            652.000000, 0.000163;
            652.500000, 0.000156;
            653.000000, 0.000150;
            653.500000, 0.000144;
            654.000000, 0.000139;
            654.500000, 0.000133;
            655.000000, 0.000128;
            655.500000, 0.000123;
            656.000000, 0.000118;
            656.500000, 0.000114;
            657.000000, 0.000109;
            657.500000, 0.000105;
            658.000000, 0.000101;
            658.500000, 0.000097;
            659.000000, 0.000093;
            659.500000, 0.000090;
            660.000000, 0.000086;
            660.500000, 0.000083;
            661.000000, 0.000080;
            661.500000, 0.000077;
            662.000000, 0.000074;
            662.500000, 0.000071;
            663.000000, 0.000068;
            663.500000, 0.000066;
            664.000000, 0.000063;
            664.500000, 0.000061;
            665.000000, 0.000059;
            665.500000, 0.000056;
            666.000000, 0.000054;
            666.500000, 0.000052;
            667.000000, 0.000050;
            667.500000, 0.000048;
            668.000000, 0.000046;
            668.500000, 0.000045;
            669.000000, 0.000043;
            669.500000, 0.000041;
            670.000000, 0.000040;
            670.500000, 0.000038;
            671.000000, 0.000037;
            671.500000, 0.000036;
            672.000000, 0.000034;
            672.500000, 0.000033;
            673.000000, 0.000032;
            673.500000, 0.000031;
            674.000000, 0.000029;
            674.500000, 0.000028;
            675.000000, 0.000027;
            675.500000, 0.000026;
            676.000000, 0.000025;
            676.500000, 0.000024;
            677.000000, 0.000023;
            677.500000, 0.000023;
            678.000000, 0.000022;
            678.500000, 0.000021;
            679.000000, 0.000020;
            679.500000, 0.000019;
            680.000000, 0.000019;
            680.500000, 0.000018;
            681.000000, 0.000017;
            681.500000, 0.000017;
            682.000000, 0.000016;
            682.500000, 0.000016;
            683.000000, 0.000015;
            683.500000, 0.000015;
            684.000000, 0.000014;
            684.500000, 0.000013;
            685.000000, 0.000013;
            685.500000, 0.000013;
            686.000000, 0.000012;
            686.500000, 0.000012;
            687.000000, 0.000011;
            687.500000, 0.000011;
            688.000000, 0.000010;
            688.500000, 0.000010;
            689.000000, 0.000010;
            689.500000, 0.000009;
            690.000000, 0.000009;
            690.500000, 0.000009;
            691.000000, 0.000008;
            691.500000, 0.000008;
            692.000000, 0.000008;
            692.500000, 0.000008;
            693.000000, 0.000007;
            693.500000, 0.000007;
            694.000000, 0.000007;
            694.500000, 0.000007;
            695.000000, 0.000006;
            695.500000, 0.000006;
            696.000000, 0.000006;
            696.500000, 0.000006;
            697.000000, 0.000005;
            697.500000, 0.000005;
            698.000000, 0.000005;
            698.500000, 0.000005;
            699.000000, 0.000005;
            699.500000, 0.000005;
            700.000000, 0.000004;
            700.500000, 0.000004;
            701.000000, 0.000004;
            701.500000, 0.000004;
            702.000000, 0.000004;
            702.500000, 0.000004;
            703.000000, 0.000004;
            703.500000, 0.000003;
            704.000000, 0.000003;
            704.500000, 0.000003;
            705.000000, 0.000003;
            705.500000, 0.000003;
            706.000000, 0.000003;
            706.500000, 0.000003;
            707.000000, 0.000003;
            707.500000, 0.000003;
            708.000000, 0.000003;
            708.500000, 0.000002;
            709.000000, 0.000002;
            709.500000, 0.000002;
            710.000000, 0.000002;
            710.500000, 0.000002;
            711.000000, 0.000002;
            711.500000, 0.000002;
            712.000000, 0.000002;
            712.500000, 0.000002;
            713.000000, 0.000002;
            713.500000, 0.000002;
            714.000000, 0.000002;
            714.500000, 0.000002;
            715.000000, 0.000002;
            715.500000, 0.000002;
            716.000000, 0.000001;
            716.500000, 0.000001;
            717.000000, 0.000001;
            717.500000, 0.000001;
            718.000000, 0.000001;
            718.500000, 0.000001;
            719.000000, 0.000001;
            719.500000, 0.000001;
            720.000000, 0.000001;
            720.500000, 0.000001;
            721.000000, 0.000001;
            721.500000, 0.000001;
            722.000000, 0.000001;
            722.500000, 0.000001;
            723.000000, 0.000001;
            723.500000, 0.000001;
            724.000000, 0.000001;
            724.500000, 0.000001;
            725.000000, 0.000001;
            725.500000, 0.000001;
            726.000000, 0.000001;
            726.500000, 0.000001;
            727.000000, 0.000001;
            727.500000, 0.000001;
            728.000000, 0.000001;
            728.500000, 0.000001;
            729.000000, 0.000001;
            729.500000, 0.000001;
            730.000000, 0.000001;
            730.500000, 0.000001;
            731.000000, 0.000001;
            731.500000, 0.000001;
            732.000000, 0.000001;
            732.500000, 0.000001;
            733.000000, 0.000000;
            733.500000, 0.000000;
            734.000000, 0.000000;
            734.500000, 0.000000;
            735.000000, 0.000000;
            735.500000, 0.000000;
            736.000000, 0.000000;
            736.500000, 0.000000;
            737.000000, 0.000000;
            737.500000, 0.000000;
            738.000000, 0.000000;
            738.500000, 0.000000;
            739.000000, 0.000000;
            739.500000, 0.000000;
            740.000000, 0.000000;
            740.500000, 0.000000;
            741.000000, 0.000000;
            741.500000, 0.000000;
            742.000000, 0.000000;
            742.500000, 0.000000;
            743.000000, 0.000000;
            743.500000, 0.000000;
            744.000000, 0.000000;
            744.500000, 0.000000;
            745.000000, 0.000000;
            745.500000, 0.000000;
            746.000000, 0.000000;
            746.500000, 0.000000;
            747.000000, 0.000000;
            747.500000, 0.000000;
            748.000000, 0.000000;
            748.500000, 0.000000;
            749.000000, 0.000000;
            749.500000, 0.000000;
            750.000000, 0.000000;
            750.500000, 0.000000;
            751.000000, 0.000000;
            751.500000, 0.000000;
            752.000000, 0.000000;
            752.500000, 0.000000;
            753.000000, 0.000000;
            753.500000, 0.000000;
            754.000000, 0.000000;
            754.500000, 0.000000;
            755.000000, 0.000000;
            755.500000, 0.000000;
            756.000000, 0.000000;
            756.500000, 0.000000;
            757.000000, 0.000000;
            757.500000, 0.000000;
            758.000000, 0.000000;
            758.500000, 0.000000;
            759.000000, 0.000000;
            759.500000, 0.000000;
            760.000000, 0.000000;
            760.500000, 0.000000;
            761.000000, 0.000000;
            761.500000, 0.000000;
            762.000000, 0.000000;
            762.500000, 0.000000;
            763.000000, 0.000000;
            763.500000, 0.000000;
            764.000000, 0.000000;
            764.500000, 0.000000;
            765.000000, 0.000000;
            765.500000, 0.000000;
            766.000000, 0.000000;
            766.500000, 0.000000;
            767.000000, 0.000000;
            767.500000, 0.000000;
            768.000000, 0.000000;
            768.500000, 0.000000;
            769.000000, 0.000000;
            769.500000, 0.000000;
            770.000000, 0.000000;
            770.500000, 0.000000;
            771.000000, 0.000000;
            771.500000, 0.000000;
            772.000000, 0.000000;
            772.500000, 0.000000;
            773.000000, 0.000000;
            773.500000, 0.000000;
            774.000000, 0.000000;
            774.500000, 0.000000;
            775.000000, 0.000000;
            775.500000, 0.000000;
            776.000000, 0.000000;
            776.500000, 0.000000;
            777.000000, 0.000000;
            777.500000, 0.000000;
            778.000000, 0.000000;
            778.500000, 0.000000;
            779.000000, 0.000000;
            779.500000, 0.000000;
            780.000000, 0.000000;
            780.500000, 0.000000;
            781.000000, 0.000000;
            781.500000, 0.000000;
            782.000000, 0.000000;
            782.500000, 0.000000;
            783.000000, 0.000000;
            783.500000, 0.000000;
            784.000000, 0.000000;
            784.500000, 0.000000;
            785.000000, 0.000000;
            785.500000, 0.000000;
            786.000000, 0.000000;
            786.500000, 0.000000;
            787.000000, 0.000000;
            787.500000, 0.000000;
            788.000000, 0.000000;
            788.500000, 0.000000;
            789.000000, 0.000000;
            789.500000, 0.000000;
            790.000000, 0.000000;
            790.500000, 0.000000;
            791.000000, 0.000000;
            791.500000, 0.000000;
            792.000000, 0.000000;
            792.500000, 0.000000;
            793.000000, 0.000000;
            793.500000, 0.000000;
            794.000000, 0.000000;
            794.500000, 0.000000;
            795.000000, 0.000000;
            795.500000, 0.000000;
            796.000000, 0.000000;
            796.500000, 0.000000;
            797.000000, 0.000000;
            797.500000, 0.000000;
            798.000000, 0.000000;
            798.500000, 0.000000;
            799.000000, 0.000000;
            799.500000, 0.000000;
            800.000000, 0.000000];
        
        S_CONE_SPECTRUM = [ ...
            350.000000, 0.972369;
            350.500000, 0.975757;
            351.000000, 0.978993;
            351.500000, 0.982073;
            352.000000, 0.984990;
            352.500000, 0.987738;
            353.000000, 0.990312;
            353.500000, 0.992705;
            354.000000, 0.994911;
            354.500000, 0.996925;
            355.000000, 0.998741;
            355.500000, 1.000352;
            356.000000, 1.001754;
            356.500000, 1.002940;
            357.000000, 1.003904;
            357.500000, 1.004642;
            358.000000, 1.005146;
            358.500000, 1.005412;
            359.000000, 1.005434;
            359.500000, 1.005207;
            360.000000, 1.004725;
            360.500000, 1.003983;
            361.000000, 1.002976;
            361.500000, 1.001700;
            362.000000, 1.000148;
            362.500000, 0.998316;
            363.000000, 0.996200;
            363.500000, 0.993796;
            364.000000, 0.991098;
            364.500000, 0.988103;
            365.000000, 0.984806;
            365.500000, 0.981205;
            366.000000, 0.977295;
            366.500000, 0.973073;
            367.000000, 0.968536;
            367.500000, 0.963681;
            368.000000, 0.958506;
            368.500000, 0.953008;
            369.000000, 0.947184;
            369.500000, 0.941035;
            370.000000, 0.934557;
            370.500000, 0.927750;
            371.000000, 0.920612;
            371.500000, 0.913145;
            372.000000, 0.905347;
            372.500000, 0.897220;
            373.000000, 0.888763;
            373.500000, 0.879978;
            374.000000, 0.870868;
            374.500000, 0.861434;
            375.000000, 0.851678;
            375.500000, 0.841605;
            376.000000, 0.831219;
            376.500000, 0.820523;
            377.000000, 0.809522;
            377.500000, 0.798223;
            378.000000, 0.786632;
            378.500000, 0.774755;
            379.000000, 0.762601;
            379.500000, 0.750177;
            380.000000, 0.737494;
            380.500000, 0.724560;
            381.000000, 0.711386;
            381.500000, 0.697985;
            382.000000, 0.684367;
            382.500000, 0.670547;
            383.000000, 0.656537;
            383.500000, 0.642353;
            384.000000, 0.628009;
            384.500000, 0.613521;
            385.000000, 0.598907;
            385.500000, 0.584183;
            386.000000, 0.569367;
            386.500000, 0.554479;
            387.000000, 0.539537;
            387.500000, 0.524560;
            388.000000, 0.509570;
            388.500000, 0.494585;
            389.000000, 0.479627;
            389.500000, 0.464715;
            390.000000, 0.449872;
            390.500000, 0.435117;
            391.000000, 0.420470;
            391.500000, 0.405952;
            392.000000, 0.391583;
            392.500000, 0.377382;
            393.000000, 0.363368;
            393.500000, 0.349558;
            394.000000, 0.335970;
            394.500000, 0.322620;
            395.000000, 0.309524;
            395.500000, 0.296695;
            396.000000, 0.284146;
            396.500000, 0.271891;
            397.000000, 0.259939;
            397.500000, 0.248300;
            398.000000, 0.236982;
            398.500000, 0.225993;
            399.000000, 0.215336;
            399.500000, 0.205018;
            400.000000, 0.195041;
            400.500000, 0.185406;
            401.000000, 0.176115;
            401.500000, 0.167166;
            402.000000, 0.158559;
            402.500000, 0.150290;
            403.000000, 0.142356;
            403.500000, 0.134753;
            404.000000, 0.127475;
            404.500000, 0.120515;
            405.000000, 0.113869;
            405.500000, 0.107527;
            406.000000, 0.101483;
            406.500000, 0.095727;
            407.000000, 0.090253;
            407.500000, 0.085050;
            408.000000, 0.080110;
            408.500000, 0.075423;
            409.000000, 0.070980;
            409.500000, 0.066772;
            410.000000, 0.062790;
            410.500000, 0.059023;
            411.000000, 0.055463;
            411.500000, 0.052101;
            412.000000, 0.048928;
            412.500000, 0.045935;
            413.000000, 0.043113;
            413.500000, 0.040454;
            414.000000, 0.037950;
            414.500000, 0.035593;
            415.000000, 0.033376;
            415.500000, 0.031290;
            416.000000, 0.029330;
            416.500000, 0.027488;
            417.000000, 0.025758;
            417.500000, 0.024133;
            418.000000, 0.022608;
            418.500000, 0.021177;
            419.000000, 0.019835;
            419.500000, 0.018576;
            420.000000, 0.017395;
            420.500000, 0.016288;
            421.000000, 0.015251;
            421.500000, 0.014279;
            422.000000, 0.013369;
            422.500000, 0.012516;
            423.000000, 0.011717;
            423.500000, 0.010969;
            424.000000, 0.010269;
            424.500000, 0.009613;
            425.000000, 0.008999;
            425.500000, 0.008425;
            426.000000, 0.007887;
            426.500000, 0.007384;
            427.000000, 0.006913;
            427.500000, 0.006472;
            428.000000, 0.006060;
            428.500000, 0.005674;
            429.000000, 0.005313;
            429.500000, 0.004975;
            430.000000, 0.004659;
            430.500000, 0.004364;
            431.000000, 0.004087;
            431.500000, 0.003828;
            432.000000, 0.003586;
            432.500000, 0.003359;
            433.000000, 0.003147;
            433.500000, 0.002949;
            434.000000, 0.002763;
            434.500000, 0.002589;
            435.000000, 0.002426;
            435.500000, 0.002274;
            436.000000, 0.002132;
            436.500000, 0.001998;
            437.000000, 0.001874;
            437.500000, 0.001757;
            438.000000, 0.001647;
            438.500000, 0.001545;
            439.000000, 0.001449;
            439.500000, 0.001359;
            440.000000, 0.001275;
            440.500000, 0.001196;
            441.000000, 0.001122;
            441.500000, 0.001053;
            442.000000, 0.000988;
            442.500000, 0.000928;
            443.000000, 0.000871;
            443.500000, 0.000818;
            444.000000, 0.000768;
            444.500000, 0.000721;
            445.000000, 0.000677;
            445.500000, 0.000636;
            446.000000, 0.000597;
            446.500000, 0.000561;
            447.000000, 0.000527;
            447.500000, 0.000496;
            448.000000, 0.000466;
            448.500000, 0.000438;
            449.000000, 0.000411;
            449.500000, 0.000387;
            450.000000, 0.000364;
            450.500000, 0.000342;
            451.000000, 0.000322;
            451.500000, 0.000303;
            452.000000, 0.000285;
            452.500000, 0.000268;
            453.000000, 0.000252;
            453.500000, 0.000237;
            454.000000, 0.000223;
            454.500000, 0.000210;
            455.000000, 0.000198;
            455.500000, 0.000186;
            456.000000, 0.000175;
            456.500000, 0.000165;
            457.000000, 0.000156;
            457.500000, 0.000147;
            458.000000, 0.000138;
            458.500000, 0.000130;
            459.000000, 0.000123;
            459.500000, 0.000116;
            460.000000, 0.000109;
            460.500000, 0.000103;
            461.000000, 0.000097;
            461.500000, 0.000091;
            462.000000, 0.000086;
            462.500000, 0.000081;
            463.000000, 0.000077;
            463.500000, 0.000072;
            464.000000, 0.000068;
            464.500000, 0.000064;
            465.000000, 0.000061;
            465.500000, 0.000057;
            466.000000, 0.000054;
            466.500000, 0.000051;
            467.000000, 0.000048;
            467.500000, 0.000045;
            468.000000, 0.000043;
            468.500000, 0.000041;
            469.000000, 0.000038;
            469.500000, 0.000036;
            470.000000, 0.000034;
            470.500000, 0.000032;
            471.000000, 0.000031;
            471.500000, 0.000029;
            472.000000, 0.000027;
            472.500000, 0.000026;
            473.000000, 0.000024;
            473.500000, 0.000023;
            474.000000, 0.000022;
            474.500000, 0.000021;
            475.000000, 0.000020;
            475.500000, 0.000018;
            476.000000, 0.000017;
            476.500000, 0.000017;
            477.000000, 0.000016;
            477.500000, 0.000015;
            478.000000, 0.000014;
            478.500000, 0.000013;
            479.000000, 0.000013;
            479.500000, 0.000012;
            480.000000, 0.000011;
            480.500000, 0.000011;
            481.000000, 0.000010;
            481.500000, 0.000010;
            482.000000, 0.000009;
            482.500000, 0.000009;
            483.000000, 0.000008;
            483.500000, 0.000008;
            484.000000, 0.000007;
            484.500000, 0.000007;
            485.000000, 0.000007;
            485.500000, 0.000006;
            486.000000, 0.000006;
            486.500000, 0.000006;
            487.000000, 0.000005;
            487.500000, 0.000005;
            488.000000, 0.000005;
            488.500000, 0.000005;
            489.000000, 0.000004;
            489.500000, 0.000004;
            490.000000, 0.000004;
            490.500000, 0.000004;
            491.000000, 0.000003;
            491.500000, 0.000003;
            492.000000, 0.000003;
            492.500000, 0.000003;
            493.000000, 0.000003;
            493.500000, 0.000003;
            494.000000, 0.000003;
            494.500000, 0.000002;
            495.000000, 0.000002;
            495.500000, 0.000002;
            496.000000, 0.000002;
            496.500000, 0.000002;
            497.000000, 0.000002;
            497.500000, 0.000002;
            498.000000, 0.000002;
            498.500000, 0.000002;
            499.000000, 0.000002;
            499.500000, 0.000001;
            500.000000, 0.000001;
            500.500000, 0.000001;
            501.000000, 0.000001;
            501.500000, 0.000001;
            502.000000, 0.000001;
            502.500000, 0.000001;
            503.000000, 0.000001;
            503.500000, 0.000001;
            504.000000, 0.000001;
            504.500000, 0.000001;
            505.000000, 0.000001;
            505.500000, 0.000001;
            506.000000, 0.000001;
            506.500000, 0.000001;
            507.000000, 0.000001;
            507.500000, 0.000001;
            508.000000, 0.000001;
            508.500000, 0.000001;
            509.000000, 0.000001;
            509.500000, 0.000001;
            510.000000, 0.000001;
            510.500000, 0.000000;
            511.000000, 0.000000;
            511.500000, 0.000000;
            512.000000, 0.000000;
            512.500000, 0.000000;
            513.000000, 0.000000;
            513.500000, 0.000000;
            514.000000, 0.000000;
            514.500000, 0.000000;
            515.000000, 0.000000;
            515.500000, 0.000000;
            516.000000, 0.000000;
            516.500000, 0.000000;
            517.000000, 0.000000;
            517.500000, 0.000000;
            518.000000, 0.000000;
            518.500000, 0.000000;
            519.000000, 0.000000;
            519.500000, 0.000000;
            520.000000, 0.000000;
            520.500000, 0.000000;
            521.000000, 0.000000;
            521.500000, 0.000000;
            522.000000, 0.000000;
            522.500000, 0.000000;
            523.000000, 0.000000;
            523.500000, 0.000000;
            524.000000, 0.000000;
            524.500000, 0.000000;
            525.000000, 0.000000;
            525.500000, 0.000000;
            526.000000, 0.000000;
            526.500000, 0.000000;
            527.000000, 0.000000;
            527.500000, 0.000000;
            528.000000, 0.000000;
            528.500000, 0.000000;
            529.000000, 0.000000;
            529.500000, 0.000000;
            530.000000, 0.000000;
            530.500000, 0.000000;
            531.000000, 0.000000;
            531.500000, 0.000000;
            532.000000, 0.000000;
            532.500000, 0.000000;
            533.000000, 0.000000;
            533.500000, 0.000000;
            534.000000, 0.000000;
            534.500000, 0.000000;
            535.000000, 0.000000;
            535.500000, 0.000000;
            536.000000, 0.000000;
            536.500000, 0.000000;
            537.000000, 0.000000;
            537.500000, 0.000000;
            538.000000, 0.000000;
            538.500000, 0.000000;
            539.000000, 0.000000;
            539.500000, 0.000000;
            540.000000, 0.000000;
            540.500000, 0.000000;
            541.000000, 0.000000;
            541.500000, 0.000000;
            542.000000, 0.000000;
            542.500000, 0.000000;
            543.000000, 0.000000;
            543.500000, 0.000000;
            544.000000, 0.000000;
            544.500000, 0.000000;
            545.000000, 0.000000;
            545.500000, 0.000000;
            546.000000, 0.000000;
            546.500000, 0.000000;
            547.000000, 0.000000;
            547.500000, 0.000000;
            548.000000, 0.000000;
            548.500000, 0.000000;
            549.000000, 0.000000;
            549.500000, 0.000000;
            550.000000, 0.000000;
            550.500000, 0.000000;
            551.000000, 0.000000;
            551.500000, 0.000000;
            552.000000, 0.000000;
            552.500000, 0.000000;
            553.000000, 0.000000;
            553.500000, 0.000000;
            554.000000, 0.000000;
            554.500000, 0.000000;
            555.000000, 0.000000;
            555.500000, 0.000000;
            556.000000, 0.000000;
            556.500000, 0.000000;
            557.000000, 0.000000;
            557.500000, 0.000000;
            558.000000, 0.000000;
            558.500000, 0.000000;
            559.000000, 0.000000;
            559.500000, 0.000000;
            560.000000, 0.000000;
            560.500000, 0.000000;
            561.000000, 0.000000;
            561.500000, 0.000000;
            562.000000, 0.000000;
            562.500000, 0.000000;
            563.000000, 0.000000;
            563.500000, 0.000000;
            564.000000, 0.000000;
            564.500000, 0.000000;
            565.000000, 0.000000;
            565.500000, 0.000000;
            566.000000, 0.000000;
            566.500000, 0.000000;
            567.000000, 0.000000;
            567.500000, 0.000000;
            568.000000, 0.000000;
            568.500000, 0.000000;
            569.000000, 0.000000;
            569.500000, 0.000000;
            570.000000, 0.000000;
            570.500000, 0.000000;
            571.000000, 0.000000;
            571.500000, 0.000000;
            572.000000, 0.000000;
            572.500000, 0.000000;
            573.000000, 0.000000;
            573.500000, 0.000000;
            574.000000, 0.000000;
            574.500000, 0.000000;
            575.000000, 0.000000;
            575.500000, 0.000000;
            576.000000, 0.000000;
            576.500000, 0.000000;
            577.000000, 0.000000;
            577.500000, 0.000000;
            578.000000, 0.000000;
            578.500000, 0.000000;
            579.000000, 0.000000;
            579.500000, 0.000000;
            580.000000, 0.000000;
            580.500000, 0.000000;
            581.000000, 0.000000;
            581.500000, 0.000000;
            582.000000, 0.000000;
            582.500000, 0.000000;
            583.000000, 0.000000;
            583.500000, 0.000000;
            584.000000, 0.000000;
            584.500000, 0.000000;
            585.000000, 0.000000;
            585.500000, 0.000000;
            586.000000, 0.000000;
            586.500000, 0.000000;
            587.000000, 0.000000;
            587.500000, 0.000000;
            588.000000, 0.000000;
            588.500000, 0.000000;
            589.000000, 0.000000;
            589.500000, 0.000000;
            590.000000, 0.000000;
            590.500000, 0.000000;
            591.000000, 0.000000;
            591.500000, 0.000000;
            592.000000, 0.000000;
            592.500000, 0.000000;
            593.000000, 0.000000;
            593.500000, 0.000000;
            594.000000, 0.000000;
            594.500000, 0.000000;
            595.000000, 0.000000;
            595.500000, 0.000000;
            596.000000, 0.000000;
            596.500000, 0.000000;
            597.000000, 0.000000;
            597.500000, 0.000000;
            598.000000, 0.000000;
            598.500000, 0.000000;
            599.000000, 0.000000;
            599.500000, 0.000000;
            600.000000, 0.000000;
            600.500000, 0.000000;
            601.000000, 0.000000;
            601.500000, 0.000000;
            602.000000, 0.000000;
            602.500000, 0.000000;
            603.000000, 0.000000;
            603.500000, 0.000000;
            604.000000, 0.000000;
            604.500000, 0.000000;
            605.000000, 0.000000;
            605.500000, 0.000000;
            606.000000, 0.000000;
            606.500000, 0.000000;
            607.000000, 0.000000;
            607.500000, 0.000000;
            608.000000, 0.000000;
            608.500000, 0.000000;
            609.000000, 0.000000;
            609.500000, 0.000000;
            610.000000, 0.000000;
            610.500000, 0.000000;
            611.000000, 0.000000;
            611.500000, 0.000000;
            612.000000, 0.000000;
            612.500000, 0.000000;
            613.000000, 0.000000;
            613.500000, 0.000000;
            614.000000, 0.000000;
            614.500000, 0.000000;
            615.000000, 0.000000;
            615.500000, 0.000000;
            616.000000, 0.000000;
            616.500000, 0.000000;
            617.000000, 0.000000;
            617.500000, 0.000000;
            618.000000, 0.000000;
            618.500000, 0.000000;
            619.000000, 0.000000;
            619.500000, 0.000000;
            620.000000, 0.000000;
            620.500000, 0.000000;
            621.000000, 0.000000;
            621.500000, 0.000000;
            622.000000, 0.000000;
            622.500000, 0.000000;
            623.000000, 0.000000;
            623.500000, 0.000000;
            624.000000, 0.000000;
            624.500000, 0.000000;
            625.000000, 0.000000;
            625.500000, 0.000000;
            626.000000, 0.000000;
            626.500000, 0.000000;
            627.000000, 0.000000;
            627.500000, 0.000000;
            628.000000, 0.000000;
            628.500000, 0.000000;
            629.000000, 0.000000;
            629.500000, 0.000000;
            630.000000, 0.000000;
            630.500000, 0.000000;
            631.000000, 0.000000;
            631.500000, 0.000000;
            632.000000, 0.000000;
            632.500000, 0.000000;
            633.000000, 0.000000;
            633.500000, 0.000000;
            634.000000, 0.000000;
            634.500000, 0.000000;
            635.000000, 0.000000;
            635.500000, 0.000000;
            636.000000, 0.000000;
            636.500000, 0.000000;
            637.000000, 0.000000;
            637.500000, 0.000000;
            638.000000, 0.000000;
            638.500000, 0.000000;
            639.000000, 0.000000;
            639.500000, 0.000000;
            640.000000, 0.000000;
            640.500000, 0.000000;
            641.000000, 0.000000;
            641.500000, 0.000000;
            642.000000, 0.000000;
            642.500000, 0.000000;
            643.000000, 0.000000;
            643.500000, 0.000000;
            644.000000, 0.000000;
            644.500000, 0.000000;
            645.000000, 0.000000;
            645.500000, 0.000000;
            646.000000, 0.000000;
            646.500000, 0.000000;
            647.000000, 0.000000;
            647.500000, 0.000000;
            648.000000, 0.000000;
            648.500000, 0.000000;
            649.000000, 0.000000;
            649.500000, 0.000000;
            650.000000, 0.000000;
            650.500000, 0.000000;
            651.000000, 0.000000;
            651.500000, 0.000000;
            652.000000, 0.000000;
            652.500000, 0.000000;
            653.000000, 0.000000;
            653.500000, 0.000000;
            654.000000, 0.000000;
            654.500000, 0.000000;
            655.000000, 0.000000;
            655.500000, 0.000000;
            656.000000, 0.000000;
            656.500000, 0.000000;
            657.000000, 0.000000;
            657.500000, 0.000000;
            658.000000, 0.000000;
            658.500000, 0.000000;
            659.000000, 0.000000;
            659.500000, 0.000000;
            660.000000, 0.000000;
            660.500000, 0.000000;
            661.000000, 0.000000;
            661.500000, 0.000000;
            662.000000, 0.000000;
            662.500000, 0.000000;
            663.000000, 0.000000;
            663.500000, 0.000000;
            664.000000, 0.000000;
            664.500000, 0.000000;
            665.000000, 0.000000;
            665.500000, 0.000000;
            666.000000, 0.000000;
            666.500000, 0.000000;
            667.000000, 0.000000;
            667.500000, 0.000000;
            668.000000, 0.000000;
            668.500000, 0.000000;
            669.000000, 0.000000;
            669.500000, 0.000000;
            670.000000, 0.000000;
            670.500000, 0.000000;
            671.000000, 0.000000;
            671.500000, 0.000000;
            672.000000, 0.000000;
            672.500000, 0.000000;
            673.000000, 0.000000;
            673.500000, 0.000000;
            674.000000, 0.000000;
            674.500000, 0.000000;
            675.000000, 0.000000;
            675.500000, 0.000000;
            676.000000, 0.000000;
            676.500000, 0.000000;
            677.000000, 0.000000;
            677.500000, 0.000000;
            678.000000, 0.000000;
            678.500000, 0.000000;
            679.000000, 0.000000;
            679.500000, 0.000000;
            680.000000, 0.000000;
            680.500000, 0.000000;
            681.000000, 0.000000;
            681.500000, 0.000000;
            682.000000, 0.000000;
            682.500000, 0.000000;
            683.000000, 0.000000;
            683.500000, 0.000000;
            684.000000, 0.000000;
            684.500000, 0.000000;
            685.000000, 0.000000;
            685.500000, 0.000000;
            686.000000, 0.000000;
            686.500000, 0.000000;
            687.000000, 0.000000;
            687.500000, 0.000000;
            688.000000, 0.000000;
            688.500000, 0.000000;
            689.000000, 0.000000;
            689.500000, 0.000000;
            690.000000, 0.000000;
            690.500000, 0.000000;
            691.000000, 0.000000;
            691.500000, 0.000000;
            692.000000, 0.000000;
            692.500000, 0.000000;
            693.000000, 0.000000;
            693.500000, 0.000000;
            694.000000, 0.000000;
            694.500000, 0.000000;
            695.000000, 0.000000;
            695.500000, 0.000000;
            696.000000, 0.000000;
            696.500000, 0.000000;
            697.000000, 0.000000;
            697.500000, 0.000000;
            698.000000, 0.000000;
            698.500000, 0.000000;
            699.000000, 0.000000;
            699.500000, 0.000000;
            700.000000, 0.000000;
            700.500000, 0.000000;
            701.000000, 0.000000;
            701.500000, 0.000000;
            702.000000, 0.000000;
            702.500000, 0.000000;
            703.000000, 0.000000;
            703.500000, 0.000000;
            704.000000, 0.000000;
            704.500000, 0.000000;
            705.000000, 0.000000;
            705.500000, 0.000000;
            706.000000, 0.000000;
            706.500000, 0.000000;
            707.000000, 0.000000;
            707.500000, 0.000000;
            708.000000, 0.000000;
            708.500000, 0.000000;
            709.000000, 0.000000;
            709.500000, 0.000000;
            710.000000, 0.000000;
            710.500000, 0.000000;
            711.000000, 0.000000;
            711.500000, 0.000000;
            712.000000, 0.000000;
            712.500000, 0.000000;
            713.000000, 0.000000;
            713.500000, 0.000000;
            714.000000, 0.000000;
            714.500000, 0.000000;
            715.000000, 0.000000;
            715.500000, 0.000000;
            716.000000, 0.000000;
            716.500000, 0.000000;
            717.000000, 0.000000;
            717.500000, 0.000000;
            718.000000, 0.000000;
            718.500000, 0.000000;
            719.000000, 0.000000;
            719.500000, 0.000000;
            720.000000, 0.000000;
            720.500000, 0.000000;
            721.000000, 0.000000;
            721.500000, 0.000000;
            722.000000, 0.000000;
            722.500000, 0.000000;
            723.000000, 0.000000;
            723.500000, 0.000000;
            724.000000, 0.000000;
            724.500000, 0.000000;
            725.000000, 0.000000;
            725.500000, 0.000000;
            726.000000, 0.000000;
            726.500000, 0.000000;
            727.000000, 0.000000;
            727.500000, 0.000000;
            728.000000, 0.000000;
            728.500000, 0.000000;
            729.000000, 0.000000;
            729.500000, 0.000000;
            730.000000, 0.000000;
            730.500000, 0.000000;
            731.000000, 0.000000;
            731.500000, 0.000000;
            732.000000, 0.000000;
            732.500000, 0.000000;
            733.000000, 0.000000;
            733.500000, 0.000000;
            734.000000, 0.000000;
            734.500000, 0.000000;
            735.000000, 0.000000;
            735.500000, 0.000000;
            736.000000, 0.000000;
            736.500000, 0.000000;
            737.000000, 0.000000;
            737.500000, 0.000000;
            738.000000, 0.000000;
            738.500000, 0.000000;
            739.000000, 0.000000;
            739.500000, 0.000000;
            740.000000, 0.000000;
            740.500000, 0.000000;
            741.000000, 0.000000;
            741.500000, 0.000000;
            742.000000, 0.000000;
            742.500000, 0.000000;
            743.000000, 0.000000;
            743.500000, 0.000000;
            744.000000, 0.000000;
            744.500000, 0.000000;
            745.000000, 0.000000;
            745.500000, 0.000000;
            746.000000, 0.000000;
            746.500000, 0.000000;
            747.000000, 0.000000;
            747.500000, 0.000000;
            748.000000, 0.000000;
            748.500000, 0.000000;
            749.000000, 0.000000;
            749.500000, 0.000000;
            750.000000, 0.000000;
            750.500000, 0.000000;
            751.000000, 0.000000;
            751.500000, 0.000000;
            752.000000, 0.000000;
            752.500000, 0.000000;
            753.000000, 0.000000;
            753.500000, 0.000000;
            754.000000, 0.000000;
            754.500000, 0.000000;
            755.000000, 0.000000;
            755.500000, 0.000000;
            756.000000, 0.000000;
            756.500000, 0.000000;
            757.000000, 0.000000;
            757.500000, 0.000000;
            758.000000, 0.000000;
            758.500000, 0.000000;
            759.000000, 0.000000;
            759.500000, 0.000000;
            760.000000, 0.000000;
            760.500000, 0.000000;
            761.000000, 0.000000;
            761.500000, 0.000000;
            762.000000, 0.000000;
            762.500000, 0.000000;
            763.000000, 0.000000;
            763.500000, 0.000000;
            764.000000, 0.000000;
            764.500000, 0.000000;
            765.000000, 0.000000;
            765.500000, 0.000000;
            766.000000, 0.000000;
            766.500000, 0.000000;
            767.000000, 0.000000;
            767.500000, 0.000000;
            768.000000, 0.000000;
            768.500000, 0.000000;
            769.000000, 0.000000;
            769.500000, 0.000000;
            770.000000, 0.000000;
            770.500000, 0.000000;
            771.000000, 0.000000;
            771.500000, 0.000000;
            772.000000, 0.000000;
            772.500000, 0.000000;
            773.000000, 0.000000;
            773.500000, 0.000000;
            774.000000, 0.000000;
            774.500000, 0.000000;
            775.000000, 0.000000;
            775.500000, 0.000000;
            776.000000, 0.000000;
            776.500000, 0.000000;
            777.000000, 0.000000;
            777.500000, 0.000000;
            778.000000, 0.000000;
            778.500000, 0.000000;
            779.000000, 0.000000;
            779.500000, 0.000000;
            780.000000, 0.000000;
            780.500000, 0.000000;
            781.000000, 0.000000;
            781.500000, 0.000000;
            782.000000, 0.000000;
            782.500000, 0.000000;
            783.000000, 0.000000;
            783.500000, 0.000000;
            784.000000, 0.000000;
            784.500000, 0.000000;
            785.000000, 0.000000;
            785.500000, 0.000000;
            786.000000, 0.000000;
            786.500000, 0.000000;
            787.000000, 0.000000;
            787.500000, 0.000000;
            788.000000, 0.000000;
            788.500000, 0.000000;
            789.000000, 0.000000;
            789.500000, 0.000000;
            790.000000, 0.000000;
            790.500000, 0.000000;
            791.000000, 0.000000;
            791.500000, 0.000000;
            792.000000, 0.000000;
            792.500000, 0.000000;
            793.000000, 0.000000;
            793.500000, 0.000000;
            794.000000, 0.000000;
            794.500000, 0.000000;
            795.000000, 0.000000;
            795.500000, 0.000000;
            796.000000, 0.000000;
            796.500000, 0.000000;
            797.000000, 0.000000;
            797.500000, 0.000000;
            798.000000, 0.000000;
            798.500000, 0.000000;
            799.000000, 0.000000;
            799.500000, 0.000000;
            800.000000, 0.000000];

    end
    
end

